timestamps,TP9,AF7,AF8,TP10,Right AUX
1706612752.298,-45.410,-124.512,-60.059,-65.430,-125.488
1706612752.302,-38.086,-133.789,-56.152,-62.012,-60.547
1706612752.306,-46.875,-147.461,-55.664,-61.035,122.559
1706612752.310,-57.129,-145.508,-60.059,-69.824,10.742
1706612752.314,-53.711,-145.020,-57.129,-77.637,-76.172
1706612752.318,-51.270,-133.301,-52.734,-62.012,-22.461
1706612752.322,-37.598,-142.578,-59.082,-58.594,106.934
1706612752.325,-26.855,-169.922,-63.965,-60.059,360.352
1706612752.329,-52.246,-113.770,-57.129,-65.430,153.320
1706612752.333,-53.711,-99.121,-55.176,-79.102,-92.285
1706612752.337,-36.621,-142.578,-62.988,-81.055,27.832
1706612752.341,-22.949,-141.113,-60.547,-72.754,-62.500
1706612752.344,-26.855,-126.953,-54.199,-68.359,-178.711
1706612752.348,-45.898,-128.906,-53.711,-71.777,-104.004
1706612752.352,-64.941,-142.578,-50.781,-64.941,8.301
1706612752.356,-61.035,-137.207,-49.316,-54.688,-6.836
1706612752.360,-39.062,-135.742,-54.199,-57.617,-13.184
1706612752.364,-42.969,-145.020,-56.152,-63.477,125.488
1706612752.368,-38.086,-180.176,-60.059,-60.547,341.309
1706612752.371,-30.762,-145.020,-56.152,-64.941,309.570
1706612752.375,-44.922,-98.633,-48.828,-77.148,55.664
1706612752.379,-54.688,-128.418,-53.711,-69.824,18.066
1706612752.383,-51.758,-130.371,-56.641,-62.012,-17.090
1706612752.387,-40.039,-113.770,-51.758,-63.965,-97.656
1706612752.386,-35.645,-115.234,-48.828,-64.941,-60.547
1706612752.390,-31.738,-122.559,-44.922,-44.922,-23.438
1706612752.394,-16.602,-111.816,-37.109,-31.738,-15.625
1706612752.398,-1.953,-119.629,-41.016,-51.758,-1.465
1706612752.402,12.207,-122.070,-48.340,-52.734,27.344
1706612752.406,-2.930,-127.930,-40.039,-37.109,117.676
1706612752.410,-51.270,-163.086,-36.621,-40.527,425.781
1706612752.413,-66.895,-121.094,-32.715,-61.523,319.336
1706612752.417,-52.246,-100.098,-28.809,-63.965,17.090
1706612752.421,-43.457,-137.207,-33.691,-62.500,101.074
1706612752.425,-45.898,-132.812,-40.039,-77.637,53.223
1706612752.429,-56.152,-117.188,-38.574,-76.660,-79.102
1706612752.434,-52.734,-127.441,-35.156,-62.500,-40.527
1706612752.438,-18.066,-137.695,-41.992,-62.012,38.086
1706612752.442,-23.926,-128.906,-42.480,-73.730,-32.227
1706612752.446,-53.711,-121.582,-39.062,-76.660,-78.613
1706612752.450,-73.730,-135.742,-45.898,-69.336,-103.027
1706612752.454,-75.684,-160.156,-58.594,-71.777,100.098
1706612752.458,-48.828,-146.973,-58.594,-86.426,165.039
1706612752.461,-38.086,-122.559,-55.176,-90.332,-59.570
1706612752.465,-50.293,-135.742,-56.152,-95.703,-14.160
1706612752.469,-60.059,-182.129,-62.012,-86.426,291.992
1706612752.473,-70.801,-132.812,-60.059,-85.938,187.500
1706612752.477,-56.152,-104.492,-59.570,-90.820,-14.648
1706612752.492,-36.621,-131.836,-63.477,-94.727,-7.812
1706612752.496,-53.711,-127.441,-62.988,-112.305,25.391
1706612752.500,-74.219,-121.582,-63.965,-101.562,0.000
1706612752.504,-82.520,-129.395,-61.035,-82.520,34.180
1706612752.508,-75.684,-157.715,-62.988,-86.914,204.590
1706612752.512,-62.988,-159.668,-66.895,-89.844,304.199
1706612752.516,-59.082,-125.000,-60.059,-89.355,75.684
1706612752.519,-57.617,-110.352,-59.082,-97.168,-79.102
1706612752.523,-80.078,-150.879,-62.988,-102.539,20.508
1706612752.527,-75.684,-149.902,-64.941,-97.168,108.887
1706612752.531,-53.711,-113.281,-62.500,-96.191,0.977
1706612752.535,-48.340,-132.812,-62.012,-99.609,50.293
1706612752.538,-46.387,-145.508,-60.547,-85.938,151.367
1706612752.542,-58.594,-117.188,-55.664,-85.449,14.160
1706612752.546,-53.223,-106.934,-57.617,-90.820,-76.660
1706612752.550,-39.551,-129.883,-62.012,-85.449,-5.859
1706612752.554,-44.434,-140.137,-65.430,-89.844,-35.645
1706612752.558,-43.457,-140.625,-67.871,-95.703,13.672
1706612752.562,-62.012,-121.582,-57.129,-99.609,125.000
1706612752.565,-62.988,-121.582,-52.246,-92.773,31.250
1706612752.569,-22.461,-166.992,-60.059,-74.707,191.895
1706612752.573,-45.898,-119.141,-59.570,-91.309,184.082
1706612752.577,-62.500,-94.238,-52.246,-96.680,-108.398
1706612752.581,-44.922,-121.094,-57.129,-80.566,-98.633
1706612752.583,-56.152,-121.094,-60.059,-85.938,8.301
1706612752.587,-45.410,-130.371,-56.641,-83.496,40.039
1706612752.591,-46.875,-125.977,-59.082,-94.727,-21.973
1706612752.595,-60.059,-137.695,-61.523,-103.516,59.082
1706612752.599,-55.664,-140.625,-61.035,-92.285,293.945
1706612752.603,-35.645,-115.234,-56.152,-93.750,216.309
1706612752.607,-18.066,-112.793,-51.758,-98.145,51.270
1706612752.610,-43.457,-140.137,-53.223,-90.332,51.270
1706612752.614,-62.012,-162.598,-57.617,-88.379,285.645
1706612752.618,-75.195,-102.051,-46.387,-105.957,150.391
1706612752.622,-61.523,-104.492,-45.898,-106.934,-76.660
1706612752.626,-37.598,-138.672,-55.664,-99.609,-15.137
1706612752.629,-51.270,-122.070,-58.594,-94.238,-6.348
1706612752.633,-67.383,-130.859,-58.594,-108.398,-110.840
1706612752.637,-48.828,-142.578,-54.199,-103.027,-135.254
1706612752.641,-50.293,-149.414,-53.711,-75.684,-52.734
1706612752.645,-66.895,-131.836,-54.199,-81.055,-92.773
1706612752.649,-47.852,-128.418,-50.781,-99.609,-62.012
1706612752.653,-42.480,-142.578,-50.781,-103.027,38.574
1706612752.656,-53.223,-179.688,-57.617,-90.332,213.379
1706612752.660,-67.383,-149.414,-55.176,-94.727,211.426
1706612752.664,-70.801,-103.027,-50.293,-118.164,-28.320
1706612752.668,-58.594,-128.906,-49.805,-106.445,-35.156
1706612752.672,-51.758,-128.906,-51.270,-98.633,-15.625
1706612752.672,-39.062,-121.094,-58.594,-92.285,-43.945
1706612752.676,-46.875,-131.836,-56.641,-79.590,-49.316
1706612752.680,-52.246,-146.484,-55.664,-77.148,-28.809
1706612752.684,-41.992,-145.020,-57.129,-66.406,-82.031
1706612752.688,-32.227,-144.531,-57.129,-68.359,-77.148
1706612752.692,-37.109,-143.066,-55.664,-78.613,-0.488
1706612752.696,-49.805,-145.020,-57.129,-79.590,61.035
1706612752.699,-50.781,-180.664,-62.012,-66.406,362.793
1706612752.703,-43.945,-143.066,-65.918,-56.641,505.859
1706612752.707,-26.367,-85.938,-58.594,-60.059,375.977
1706612752.711,-11.230,-126.465,-55.664,-83.496,324.219
1706612752.715,-22.949,-133.789,-59.082,-102.051,202.148
1706612752.718,-46.875,-120.605,-55.664,-90.332,93.750
1706612752.722,-51.758,-133.789,-49.316,-82.520,158.203
1706612752.726,-50.781,-148.438,-49.805,-89.844,260.742
1706612752.730,-54.688,-128.906,-49.805,-104.004,217.773
1706612752.734,-46.875,-117.676,-50.781,-97.656,157.715
1706612752.738,-33.203,-144.531,-57.617,-81.543,60.547
1706612752.742,-32.227,-175.781,-62.012,-54.199,197.266
1706612752.745,-33.203,-135.254,-56.641,-61.035,-3.418
1706612752.749,-15.625,-112.305,-48.340,-93.262,-260.254
1706612752.753,-23.438,-134.766,-48.828,-81.055,-97.656
1706612752.757,-28.809,-140.137,-53.711,-69.336,-124.512
1706612752.761,-37.598,-121.582,-54.688,-74.219,-294.922
1706612752.762,-34.180,-127.441,-52.734,-79.590,-257.324
1706612752.766,-25.391,-140.625,-49.316,-78.613,-157.227
1706612752.770,-35.156,-129.395,-46.875,-70.801,-169.922
1706612752.774,-30.762,-126.953,-49.805,-56.152,-187.012
1706612752.778,-19.531,-135.742,-54.688,-45.898,-214.355
1706612752.782,-21.973,-153.320,-53.711,-56.641,-115.234
1706612752.786,-20.996,-168.457,-52.734,-61.035,222.656
1706612752.789,-33.691,-109.863,-52.734,-66.895,33.203
1706612752.793,-31.250,-93.750,-46.387,-60.547,-174.316
1706612752.797,-16.113,-124.512,-45.898,-43.457,-35.645
1706612752.801,-26.367,-128.906,-54.199,-56.152,-29.297
1706612752.805,-43.945,-111.816,-51.758,-78.613,-50.293
1706612752.809,-38.574,-108.398,-47.363,-66.406,-58.594
1706612752.813,-23.438,-143.555,-53.711,-41.992,-5.371
1706612752.817,-14.648,-122.070,-57.617,-45.898,-51.270
1706612752.821,-17.578,-100.098,-54.199,-57.129,-147.949
1706612752.825,-30.273,-122.559,-54.199,-62.500,-96.191
1706612752.829,-45.898,-146.484,-57.129,-51.270,-6.836
1706612752.833,-47.852,-126.465,-55.664,-59.570,18.555
1706612752.836,-44.434,-97.656,-59.082,-63.477,-61.523
1706612752.840,-27.344,-116.211,-57.617,-48.340,-101.074
1706612752.844,-16.602,-155.273,-62.500,-52.246,90.820
1706612752.848,-32.227,-109.863,-60.059,-70.312,39.551
1706612752.852,-48.340,-91.797,-51.758,-60.547,-101.074
1706612752.868,-43.945,-127.441,-51.758,-38.574,-20.508
1706612752.872,-25.391,-126.465,-54.199,-44.434,-2.441
1706612752.876,-26.855,-105.469,-50.781,-69.824,-118.652
1706612752.880,-26.855,-108.398,-53.711,-73.730,-104.004
1706612752.884,-24.902,-140.625,-59.570,-52.734,68.848
1706612752.888,-35.156,-157.715,-58.105,-30.762,297.852
1706612752.892,-35.645,-112.305,-51.270,-25.879,182.129
1706612752.895,-32.227,-100.098,-51.758,-61.035,-7.812
1706612752.899,-26.367,-147.949,-55.664,-70.801,-14.160
1706612752.903,-38.574,-143.066,-58.594,-54.199,89.844
1706612752.907,-39.551,-106.445,-56.641,-53.711,-12.207
1706612752.911,-5.859,-126.465,-54.199,-59.082,-21.484
1706612752.913,4.883,-142.578,-57.129,-66.406,30.762
1706612752.917,6.836,-125.488,-52.246,-73.242,-9.766
1706612752.921,2.441,-125.000,-52.734,-58.594,-111.328
1706612752.925,-17.090,-144.531,-57.617,-17.578,4.395
1706612752.929,-11.230,-157.227,-60.547,-10.254,173.340
1706612752.933,-19.043,-145.508,-53.711,-23.438,125.000
1706612752.937,-39.551,-127.930,-46.387,-26.855,102.539
1706612752.940,-29.785,-129.395,-49.805,-20.508,2.930
1706612752.944,-17.090,-174.805,-54.199,-4.395,158.203
1706612752.948,-18.066,-137.207,-52.734,-3.906,286.133
1706612752.952,-20.996,-90.820,-49.316,-6.348,49.316
1706612752.956,-13.672,-117.676,-52.246,-4.395,1.465
1706612752.957,-11.719,-122.559,-54.199,-14.648,35.156
1706612752.961,-27.344,-123.535,-52.734,-22.461,-47.363
1706612752.965,-29.297,-130.859,-58.105,-12.207,-119.629
1706612752.969,-23.926,-145.996,-59.570,-10.742,20.508
1706612752.973,-34.668,-143.555,-57.129,-24.414,176.270
1706612752.977,-20.996,-126.953,-64.453,-20.508,54.688
1706612752.981,-0.977,-121.094,-62.988,-8.789,34.180
1706612752.984,-7.324,-139.160,-53.711,-15.625,171.875
1706612752.988,-7.812,-174.316,-54.199,-11.719,376.953
1706612752.992,-40.039,-126.953,-50.293,-16.113,199.707
1706612752.996,-67.871,-103.516,-50.293,-23.926,-64.941
1706612753.000,-42.969,-137.695,-54.688,-10.254,46.875
1706612753.003,-21.484,-133.301,-53.223,8.789,16.602
1706612753.007,-28.809,-129.883,-53.223,1.953,-58.105
1706612753.011,-37.598,-142.090,-57.129,-20.996,29.785
1706612753.015,-43.945,-149.902,-57.617,-30.273,31.738
1706612753.019,-47.363,-134.277,-55.176,-23.926,-4.883
1706612753.023,-40.039,-139.160,-53.223,-5.859,73.242
1706612753.027,-11.719,-149.902,-56.152,-5.371,89.844
1706612753.030,1.953,-175.781,-57.617,-0.977,326.660
1706612753.034,-41.992,-140.625,-54.199,-0.977,358.398
1706612753.038,-49.316,-108.398,-52.734,-2.441,53.223
1706612753.042,-26.855,-140.137,-51.758,8.301,83.496
1706612753.046,-14.160,-148.926,-53.711,5.371,146.484
1706612753.047,-10.742,-137.207,-58.105,-6.836,51.270
1706612753.051,-24.414,-139.648,-62.988,-9.277,62.988
1706612753.055,-33.691,-156.250,-58.105,-3.906,77.148
1706612753.059,-35.645,-155.762,-60.059,-8.789,65.918
1706612753.063,-17.578,-152.344,-63.477,-8.301,132.324
1706612753.067,-19.043,-141.602,-58.105,-12.695,132.812
1706612753.071,-24.414,-152.832,-57.129,-4.883,193.359
1706612753.074,-26.367,-175.293,-59.570,11.230,417.969
1706612753.078,-41.504,-118.164,-58.594,7.812,194.336
1706612753.082,-24.902,-106.934,-57.617,10.254,-65.918
1706612753.086,-12.207,-143.066,-62.500,9.277,76.172
1706612753.090,-22.461,-123.047,-61.035,4.883,99.609
1706612753.093,-28.809,-113.770,-53.711,6.836,-28.809
1706612753.097,-19.531,-130.859,-54.199,10.254,-85.938
1706612753.101,9.277,-150.391,-56.152,16.113,43.457
1706612753.105,2.441,-127.930,-53.223,19.531,-13.672
1706612753.109,-26.367,-118.652,-51.758,14.160,-110.840
1706612753.113,-35.645,-147.949,-52.246,13.672,36.621
1706612753.117,-22.461,-168.457,-54.688,8.301,343.262
1706612753.120,-15.625,-121.582,-57.129,-9.277,332.520
1706612753.124,-39.062,-101.074,-60.059,-12.695,-7.812
1706612753.128,-53.223,-132.324,-64.453,-9.766,-12.695
1706612753.132,-41.504,-136.719,-60.547,0.000,42.480
1706612753.136,-32.715,-137.207,-57.617,12.207,-64.941
1706612753.138,-19.531,-150.391,-62.012,26.367,-64.941
1706612753.142,-13.672,-152.832,-58.594,17.090,37.109
1706612753.146,-22.461,-137.695,-55.664,-0.977,47.852
1706612753.150,-36.133,-125.488,-59.570,1.953,92.773
1706612753.154,-41.992,-135.254,-63.477,7.324,145.020
1706612753.158,-26.367,-147.461,-59.570,30.273,146.973
1706612753.162,-17.090,-169.434,-57.617,26.855,492.676
1706612753.165,-31.738,-117.188,-53.711,-14.160,299.805
1706612753.169,-28.809,-104.492,-47.363,-11.719,-39.062
1706612753.173,-19.531,-139.160,-47.363,18.066,-25.879
1706612753.177,-40.039,-124.023,-48.340,21.973,-64.453
1706612753.181,-45.898,-115.234,-46.875,12.695,-55.664
1706612753.198,-25.391,-126.953,-50.293,6.348,20.508
1706612753.202,-37.109,-142.090,-58.594,1.953,62.500
1706612753.206,-49.316,-138.184,-54.199,-1.465,39.551
1706612753.210,-45.410,-128.418,-49.805,8.789,-11.230
1706612753.214,-45.410,-129.883,-52.734,10.742,-12.207
1706612753.218,-22.461,-171.875,-57.617,11.719,250.977
1706612753.222,-33.691,-144.531,-53.711,1.465,321.777
1706612753.225,-68.359,-99.121,-49.316,-8.301,46.875
1706612753.229,-58.594,-125.488,-46.387,-2.930,7.812
1706612753.233,-50.293,-133.301,-51.758,-19.531,95.703
1706612753.237,-52.734,-148.926,-53.223,-9.766,219.727
1706612753.241,-52.246,-184.082,-54.688,20.508,458.008
1706612753.242,-49.805,-133.301,-47.852,7.812,208.496
1706612753.246,-43.945,-115.234,-42.480,-14.160,-123.047
1706612753.250,-44.434,-140.625,-47.852,-14.648,-1.953
1706612753.254,-31.738,-124.023,-52.246,-10.254,-16.113
1706612753.258,-20.996,-131.348,-54.199,-5.859,-59.570
1706612753.262,-42.969,-159.180,-49.805,2.441,96.680
1706612753.266,-55.664,-150.879,-48.828,-8.789,218.750
1706612753.269,-68.359,-132.324,-55.664,-21.973,135.254
1706612753.273,-64.941,-138.672,-50.781,-11.230,8.301
1706612753.277,-28.809,-165.039,-49.316,12.207,220.703
1706612753.281,-32.227,-172.363,-59.082,7.812,394.531
1706612753.285,-56.152,-99.609,-56.641,-29.297,84.473
1706612753.302,-43.945,-93.750,-56.641,-27.832,-76.172
1706612753.306,-18.555,-126.465,-61.035,-8.301,32.227
1706612753.310,-2.930,-108.398,-55.176,12.695,6.836
1706612753.314,-35.645,-111.816,-53.711,-3.418,-88.867
1706612753.318,-51.758,-135.742,-59.570,-21.484,-93.262
1706612753.322,-49.316,-150.879,-61.523,-8.789,40.527
1706612753.326,-44.922,-133.301,-59.570,-1.953,51.270
1706612753.329,-29.785,-109.375,-56.152,0.000,-37.109
1706612753.333,-25.879,-132.812,-60.547,0.000,1.465
1706612753.337,-18.555,-172.363,-62.988,1.465,248.047
1706612753.341,-33.691,-119.629,-56.641,-20.508,161.621
1706612753.345,-34.668,-99.121,-58.105,-21.973,-47.852
1706612753.346,-17.090,-130.859,-59.082,-4.395,46.875
1706612753.350,-23.926,-135.742,-64.453,-12.695,20.020
1706612753.354,-30.762,-125.000,-68.359,-28.320,-138.672
1706612753.358,-46.875,-135.254,-65.918,-17.578,-149.414
1706612753.362,-62.500,-161.133,-67.871,-17.090,-40.527
1706612753.366,-57.617,-161.621,-66.895,-38.574,204.102
1706612753.370,-38.574,-144.043,-66.406,-46.387,127.930
1706612753.373,-43.457,-130.371,-64.453,-46.387,-89.355
1706612753.377,-52.246,-157.227,-64.941,-27.344,92.773
1706612753.381,-38.574,-146.973,-65.430,-24.902,269.043
1706612753.385,-37.109,-110.840,-61.523,-38.574,25.879
1706612753.389,-36.133,-142.090,-61.035,-31.250,-3.906
1706612753.392,-37.598,-162.598,-62.500,-32.227,111.816
1706612753.396,-50.293,-130.859,-58.594,-41.016,41.504
1706612753.400,-45.898,-117.188,-52.734,-35.645,-9.277
1706612753.404,-35.645,-142.090,-54.199,-27.832,-31.738
1706612753.408,-34.180,-152.344,-54.688,-20.020,-7.812
1706612753.412,-19.531,-149.902,-54.199,-31.250,26.367
1706612753.416,-20.996,-142.578,-58.594,-58.105,70.312
1706612753.419,-51.270,-151.367,-56.641,-54.688,32.715
1706612753.423,-62.012,-181.641,-59.570,-35.645,147.949
1706612753.427,-55.664,-128.418,-61.523,-37.598,83.496
1706612753.431,-46.387,-110.352,-56.641,-40.039,-115.723
1706612753.435,-44.434,-137.695,-51.758,-40.527,-111.816
1706612753.440,-43.945,-138.672,-53.223,-35.156,-60.059
1706612753.444,-32.715,-148.926,-56.152,-33.203,-26.855
1706612753.448,-34.668,-144.531,-51.270,-34.668,-8.789
1706612753.452,-37.598,-157.227,-55.176,-36.133,38.574
1706612753.456,-29.297,-170.898,-55.664,-27.832,178.223
1706612753.460,-43.945,-132.812,-50.781,-36.133,100.098
1706612753.464,-60.059,-126.953,-48.828,-38.574,-5.371
1706612753.467,-48.340,-159.668,-53.711,-18.066,85.938
1706612753.471,-42.480,-151.855,-65.430,-42.969,184.082
1706612753.475,-49.805,-110.352,-63.477,-62.012,-3.418
1706612753.479,-44.434,-128.906,-60.059,-40.039,-110.352
1706612753.483,-38.086,-141.602,-62.988,-44.922,-45.898
1706612753.481,-41.504,-123.535,-59.082,-44.922,-83.008
1706612753.485,-40.039,-122.559,-61.523,-54.688,-112.305
1706612753.489,-34.180,-138.184,-65.918,-66.895,-17.578
1706612753.493,-24.414,-154.297,-61.035,-56.152,-2.930
1706612753.497,-42.480,-145.996,-61.035,-46.875,-34.180
1706612753.501,-47.363,-137.695,-64.941,-50.293,13.672
1706612753.505,-37.109,-144.531,-68.359,-52.734,49.316
1706612753.508,-32.715,-176.270,-72.754,-45.898,233.887
1706612753.512,-32.227,-132.812,-70.801,-62.500,238.281
1706612753.516,-47.852,-91.797,-58.105,-55.664,7.324
1706612753.520,-38.574,-130.371,-55.664,-29.297,16.602
1706612753.524,-20.020,-133.789,-62.012,-49.805,0.977
1706612753.526,-31.250,-130.371,-62.500,-67.383,-97.168
1706612753.530,-42.969,-134.277,-58.105,-70.801,-45.410
1706612753.534,-45.898,-138.184,-58.594,-55.664,21.484
1706612753.538,-34.668,-125.000,-55.176,-40.527,71.777
1706612753.542,-34.668,-103.027,-47.363,-54.688,34.668
1706612753.546,-47.852,-126.953,-48.340,-64.453,16.113
1706612753.550,-52.734,-148.926,-52.734,-55.664,148.926
1706612753.553,-49.805,-141.602,-52.734,-41.504,326.660
1706612753.557,-30.762,-94.238,-46.387,-45.898,89.844
1706612753.561,-12.695,-108.398,-41.016,-37.109,-121.582
1706612753.565,-37.109,-151.855,-47.363,-42.969,-41.504
1706612753.569,-59.570,-130.371,-43.945,-66.406,-49.805
1706612753.572,-63.965,-119.141,-47.363,-77.637,-106.934
1706612753.576,-56.641,-130.371,-57.129,-69.824,-31.738
1706612753.580,-31.250,-137.207,-57.129,-53.223,69.824
1706612753.584,-29.297,-135.254,-55.176,-62.012,-0.977
1706612753.588,-43.945,-132.324,-49.316,-76.172,-131.836
1706612753.592,-33.691,-153.320,-47.852,-55.664,-35.156
1706612753.596,-40.039,-176.758,-53.711,-40.039,291.504
1706612753.599,-66.406,-125.488,-50.293,-62.012,146.973
1706612753.603,-39.062,-116.211,-44.922,-72.266,-121.094
1706612753.607,-29.785,-143.555,-42.969,-79.590,-30.273
1706612753.611,-50.781,-131.836,-42.969,-84.473,-38.574
1706612753.615,-62.988,-115.234,-43.457,-70.801,-84.473
1706612753.616,-60.059,-139.648,-42.969,-59.082,-60.059
1706612753.620,-52.246,-163.086,-48.828,-62.988,41.992
1706612753.624,-63.477,-147.461,-52.246,-62.988,161.133
1706612753.628,-60.059,-121.094,-49.316,-62.500,64.453
1706612753.632,-51.270,-125.977,-53.711,-64.453,0.488
1706612753.636,-25.879,-155.762,-55.664,-47.852,122.070
1706612753.640,-8.789,-151.855,-52.246,-41.992,145.508
1706612753.643,-40.039,-125.488,-49.316,-63.965,-37.109
1706612753.647,-56.152,-130.859,-51.270,-72.266,-116.699
1706612753.651,-56.152,-162.109,-55.176,-67.871,2.930
1706612753.655,-59.570,-147.949,-57.617,-64.453,54.688
1706612753.659,-55.176,-124.512,-51.758,-56.641,5.371
1706612753.664,-49.316,-133.789,-48.828,-59.570,-51.270
1706612753.668,-44.922,-162.109,-51.758,-61.035,55.664
1706612753.672,-41.016,-138.672,-47.852,-63.477,79.102
1706612753.676,-31.738,-122.559,-45.410,-73.242,-23.926
1706612753.680,-13.184,-150.879,-47.363,-63.965,10.742
1706612753.684,-19.531,-166.992,-55.176,-70.801,43.457
1706612753.688,-29.297,-149.902,-58.105,-93.262,18.555
1706612753.691,-23.926,-126.953,-55.664,-97.168,-57.129
1706612753.695,-16.602,-142.090,-51.758,-80.566,-9.766
1706612753.699,-8.789,-181.152,-53.711,-57.129,217.773
1706612753.703,-27.832,-140.137,-59.082,-72.754,-2.441
1706612753.707,-63.477,-128.418,-59.082,-80.566,-151.855
1706612753.721,-64.453,-155.762,-56.152,-51.758,11.719
1706612753.725,-48.828,-156.738,-56.641,-45.898,126.953
1706612753.729,-33.691,-157.227,-54.199,-54.199,78.613
1706612753.733,-38.574,-138.672,-51.758,-60.059,-131.348
1706612753.737,-51.758,-164.551,-54.199,-53.223,-72.754
1706612753.741,-46.387,-197.266,-54.199,-39.062,267.578
1706612753.745,-50.293,-135.254,-49.316,-48.828,111.328
1706612753.748,-55.176,-118.652,-49.805,-47.363,-122.559
1706612753.752,-37.598,-156.738,-53.711,-46.387,33.691
1706612753.756,-53.711,-142.090,-53.711,-65.430,30.273
1706612753.760,-72.754,-128.906,-51.270,-66.406,-117.676
1706612753.764,-41.992,-150.879,-50.293,-56.641,-74.219
1706612753.767,-28.320,-147.461,-53.711,-51.270,23.438
1706612753.771,-37.598,-128.906,-47.363,-56.641,-16.113
1706612753.775,-30.762,-130.371,-44.922,-67.383,-132.812
1706612753.779,-23.926,-154.297,-51.758,-46.875,-41.504
1706612753.783,-30.762,-169.434,-55.664,-23.926,175.293
1706612753.787,-38.086,-147.461,-51.758,-27.832,62.500
1706612753.791,-44.922,-132.812,-51.270,-38.086,-29.297
1706612753.794,-48.340,-143.066,-50.293,-38.574,-27.344
1706612753.798,-49.316,-167.480,-49.316,-39.062,113.281
1706612753.802,-53.711,-121.582,-50.781,-65.918,115.723
1706612753.806,-36.133,-115.234,-53.711,-64.453,-102.539
1706612753.810,-32.227,-141.602,-52.734,-52.734,-132.324
1706612753.812,-46.387,-139.160,-47.363,-60.547,-0.977
1706612753.816,-45.898,-136.230,-42.480,-55.176,-2.441
1706612753.820,-36.133,-117.676,-43.945,-50.781,-97.168
1706612753.824,-2.930,-129.883,-45.410,-42.480,28.809
1706612753.828,-10.254,-135.254,-47.363,-48.828,142.090
1706612753.832,-44.434,-125.977,-47.363,-64.941,34.668
1706612753.836,-52.734,-121.094,-43.457,-64.941,43.457
1706612753.839,-52.734,-146.973,-49.316,-51.270,143.066
1706612753.843,-41.016,-164.551,-56.641,-39.062,303.711
1706612753.847,-38.574,-108.398,-56.152,-59.082,81.543
1706612753.851,-38.086,-115.234,-55.664,-72.266,-147.461
1706612753.855,-44.434,-145.020,-55.664,-68.359,-137.695
1706612753.857,-46.387,-122.070,-53.223,-67.383,-153.320
1706612753.861,-17.090,-111.816,-57.129,-52.246,-173.828
1706612753.865,-8.789,-129.883,-58.105,-41.016,-107.910
1706612753.869,-40.039,-140.137,-44.922,-56.641,0.488
1706612753.873,-50.781,-135.742,-48.828,-76.660,10.254
1706612753.877,-42.480,-143.066,-53.223,-68.848,42.969
1706612753.881,-41.504,-152.832,-46.387,-55.664,184.082
1706612753.884,-38.574,-187.988,-48.828,-41.016,316.406
1706612753.888,-52.734,-157.227,-50.781,-62.988,196.289
1706612753.892,-55.176,-121.582,-47.852,-80.566,-39.551
1706612753.896,-44.922,-146.973,-48.340,-68.848,-66.895
1706612753.900,-49.316,-147.949,-54.688,-62.500,77.637
1706612753.902,-27.832,-136.230,-55.664,-57.129,86.426
1706612753.906,-20.020,-143.066,-50.781,-62.012,37.598
1706612753.910,-41.992,-154.785,-55.664,-69.336,-25.391
1706612753.914,-62.500,-136.230,-53.223,-62.012,53.711
1706612753.918,-45.410,-109.375,-47.363,-61.523,-16.113
1706612753.922,-17.578,-124.023,-51.758,-62.988,-17.578
1706612753.926,-16.113,-157.227,-56.641,-61.523,151.855
1706612753.929,-20.508,-151.367,-55.176,-58.105,225.098
1706612753.933,-46.875,-103.516,-57.617,-70.801,-62.500
1706612753.937,-59.570,-122.559,-63.477,-71.289,-157.227
1706612753.941,-39.062,-151.367,-59.082,-55.664,39.062
1706612753.945,-42.969,-136.719,-58.594,-53.223,11.719
1706612753.947,-63.477,-127.930,-53.711,-67.383,-130.859
1706612753.951,-59.570,-143.066,-55.664,-71.777,-111.328
1706612753.955,-35.156,-169.922,-62.012,-69.336,70.312
1706612753.959,-25.879,-135.742,-54.688,-59.570,100.098
1706612753.963,-22.461,-115.723,-56.641,-62.988,-41.016
1706612753.967,-38.574,-147.949,-65.430,-75.195,27.344
1706612753.971,-70.312,-175.293,-63.477,-63.965,267.578
1706612753.974,-67.871,-125.488,-58.105,-76.660,145.996
1706612753.978,-48.828,-100.098,-54.199,-76.172,-111.816
1706612753.982,-31.250,-127.930,-54.199,-64.453,-52.734
1706612753.986,-25.391,-122.559,-57.129,-72.266,12.695
1706612753.990,-35.645,-114.258,-55.176,-72.754,-57.129
1706612753.993,-34.668,-121.582,-52.246,-77.148,-135.742
1706612753.997,-11.230,-140.625,-55.176,-67.383,103.516
1706612754.001,-7.324,-149.414,-56.152,-55.664,347.656
1706612754.005,-34.180,-113.281,-53.711,-71.289,33.691
1706612754.009,-41.504,-115.723,-55.176,-74.219,-114.258
1706612754.013,-34.668,-150.391,-60.547,-55.176,128.906
1706612754.017,-53.223,-146.973,-62.012,-55.664,233.887
1706612754.020,-55.176,-116.699,-58.105,-68.848,16.602
1706612754.024,-39.551,-126.953,-57.129,-72.754,-75.684
1706612754.028,-31.250,-165.527,-58.594,-58.594,68.359
1706612754.032,-34.668,-136.230,-60.547,-48.828,78.613
1706612754.036,-39.062,-106.934,-59.570,-54.199,-117.676
1706612754.051,-38.574,-136.230,-58.105,-43.457,-107.422
1706612754.055,-57.617,-148.438,-64.453,-57.617,33.203
1706612754.059,-63.965,-139.648,-62.012,-73.730,1.465
1706612754.063,-57.129,-142.578,-58.594,-74.707,-129.883
1706612754.067,-43.457,-140.625,-60.547,-74.219,-80.566
1706612754.071,-32.227,-180.176,-60.059,-57.129,258.301
1706612754.075,-46.387,-155.762,-59.570,-65.918,270.996
1706612754.078,-52.246,-116.211,-61.523,-73.242,-45.410
1706612754.082,-29.785,-139.648,-57.617,-57.129,-64.941
1706612754.086,-6.836,-159.668,-61.035,-49.316,118.652
1706612754.090,-28.809,-122.559,-65.430,-62.500,59.570
1706612754.094,-42.969,-117.188,-59.082,-74.707,-99.609
1706612754.097,-51.758,-141.602,-56.641,-72.266,3.906
1706612754.101,-46.387,-136.719,-61.035,-70.312,138.184
1706612754.105,-19.531,-112.793,-60.059,-56.152,66.406
1706612754.109,-21.484,-124.023,-54.199,-44.434,-60.547
1706612754.113,-42.969,-152.832,-53.711,-51.758,-36.133
1706612754.117,-46.875,-146.973,-53.711,-48.828,106.445
1706612754.121,-43.457,-131.836,-49.805,-46.875,38.086
1706612754.124,-29.297,-125.000,-44.434,-55.664,56.641
1706612754.128,-16.602,-145.020,-45.410,-38.574,217.773
1706612754.132,-24.902,-162.109,-47.852,-31.250,377.930
1706612754.136,-36.133,-100.586,-44.922,-57.617,128.418
1706612754.140,-39.062,-103.027,-47.363,-59.570,-43.457
1706612754.142,-49.316,-137.695,-48.828,-58.594,74.219
1706612754.146,-34.668,-124.512,-46.387,-56.152,-1.465
1706612754.150,-33.203,-123.535,-49.805,-56.152,-88.867
1706612754.154,-44.434,-127.930,-55.664,-67.383,13.184
1706612754.158,-49.805,-135.254,-58.594,-65.918,36.133
1706612754.162,-63.477,-139.648,-54.688,-49.316,100.098
1706612754.166,-45.898,-134.766,-48.828,-51.270,139.648
1706612754.169,-29.785,-135.742,-56.641,-63.477,-5.859
1706612754.173,-26.367,-166.016,-64.453,-49.316,179.199
1706612754.177,-39.551,-120.117,-57.617,-52.246,207.031
1706612754.181,-38.086,-93.750,-54.688,-51.270,-82.520
1706612754.185,-22.949,-130.371,-57.617,-41.016,-106.445
1706612754.187,-36.621,-131.836,-58.105,-52.734,-71.289
1706612754.191,-37.109,-125.977,-59.570,-61.035,-32.715
1706612754.195,-32.227,-116.699,-56.641,-59.570,-158.691
1706612754.199,-29.785,-133.789,-55.176,-53.223,-80.566
1706612754.203,-22.949,-135.742,-61.523,-36.621,110.840
1706612754.207,-38.574,-128.418,-61.523,-40.039,-9.766
1706612754.211,-53.223,-134.277,-58.105,-58.105,33.691
1706612754.214,-43.457,-156.250,-59.082,-47.852,105.469
1706612754.218,-36.621,-153.809,-59.570,-26.855,186.523
1706612754.222,-26.855,-125.977,-55.176,-39.551,11.719
1706612754.226,3.418,-145.508,-50.781,-46.875,-51.758
1706612754.230,0.977,-159.180,-50.781,-44.434,39.062
1706612754.231,-45.898,-128.906,-54.199,-51.758,-12.695
1706612754.235,-50.781,-115.234,-52.246,-46.875,-56.152
1706612754.239,-38.086,-132.812,-51.758,-37.598,26.855
1706612754.243,-26.855,-140.137,-51.758,-31.250,104.004
1706612754.247,-14.160,-135.742,-57.129,-42.480,46.875
1706612754.251,-42.480,-148.926,-62.500,-51.270,-20.508
1706612754.255,-49.805,-159.668,-60.059,-53.223,41.992
1706612754.258,-20.508,-181.641,-64.941,-52.246,292.480
1706612754.262,-22.949,-137.695,-62.500,-64.941,162.598
1706612754.266,-24.902,-118.652,-56.641,-67.383,-40.039
1706612754.270,-37.109,-146.973,-62.500,-63.477,-45.410
1706612754.274,-60.059,-140.137,-63.477,-74.707,-32.715
1706612754.278,-49.805,-154.297,-59.570,-69.336,-53.711
1706612754.282,-38.086,-159.180,-62.988,-55.176,-49.805
1706612754.286,-35.156,-161.621,-64.453,-52.734,109.375
1706612754.290,-43.457,-178.223,-64.941,-64.941,242.676
1706612754.294,-55.176,-133.789,-59.082,-85.449,66.406
1706612754.298,-52.246,-133.301,-58.105,-79.590,13.672
1706612754.302,-31.738,-170.410,-61.035,-62.012,245.605
1706612754.305,-23.438,-158.203,-60.059,-64.941,344.238
1706612754.309,-52.734,-115.234,-55.176,-84.473,67.383
1706612754.313,-60.059,-130.371,-54.688,-83.496,-62.988
1706612754.317,-42.969,-149.902,-55.664,-74.707,41.992
1706612754.321,-31.738,-142.578,-53.223,-72.266,-15.137
1706612754.337,-40.039,-136.230,-51.758,-71.289,-66.895
1706612754.341,-56.641,-147.461,-46.875,-72.266,-62.988
1706612754.345,-60.547,-162.109,-45.898,-72.754,54.199
1706612754.349,-43.457,-142.090,-50.293,-74.707,76.660
1706612754.353,-25.391,-130.371,-50.293,-68.359,-15.625
1706612754.357,-35.645,-151.855,-53.711,-61.035,14.648
1706612754.361,-42.480,-178.711,-57.129,-57.129,329.590
1706612754.364,-30.273,-131.836,-52.734,-62.500,296.875
1706612754.368,-9.766,-90.820,-56.152,-62.500,-9.277
1706612754.372,-13.672,-126.953,-62.012,-50.293,-6.836
1706612754.376,-38.086,-137.207,-53.711,-59.082,26.367
1706612754.380,-51.758,-137.207,-45.410,-71.777,-24.414
1706612754.367,-62.012,-149.902,-46.875,-60.547,-138.184
1706612754.371,-63.477,-161.133,-47.363,-42.969,11.719
1706612754.375,-47.363,-150.879,-49.805,-44.922,115.723
1706612754.379,-34.668,-124.023,-47.852,-54.688,-81.543
1706612754.383,-33.691,-129.395,-50.781,-65.430,-91.797
1706612754.387,-39.551,-152.832,-56.641,-62.500,136.230
1706612754.391,-45.898,-149.902,-53.223,-54.688,113.770
1706612754.394,-32.715,-135.742,-47.852,-46.875,53.223
1706612754.398,3.906,-124.512,-44.434,-34.180,3.906
1706612754.402,-25.391,-156.738,-46.387,-47.852,92.773
1706612754.406,-76.660,-157.715,-46.875,-63.477,71.777
1706612754.410,-75.195,-105.469,-46.875,-60.547,-142.578
1706612754.427,-46.875,-120.117,-47.852,-42.480,-31.738
1706612754.431,-35.156,-145.996,-56.641,-44.434,7.812
1706612754.435,-39.551,-132.324,-62.500,-72.266,-113.770
1706612754.439,-43.945,-122.559,-57.617,-79.102,-140.625
1706612754.443,-39.551,-136.719,-57.129,-62.500,-46.875
1706612754.447,-28.809,-151.855,-61.035,-47.852,81.055
1706612754.451,-19.531,-143.555,-65.918,-53.711,73.242
1706612754.454,-19.531,-135.742,-64.453,-67.383,52.734
1706612754.458,-23.438,-140.625,-62.500,-65.918,117.188
1706612754.462,-31.738,-166.504,-62.012,-48.340,319.336
1706612754.466,-51.758,-120.117,-60.547,-61.523,235.840
1706612754.470,-34.180,-105.469,-58.594,-67.871,-40.527
1706612754.472,-31.738,-141.602,-54.688,-55.176,-30.273
1706612754.476,-40.039,-139.648,-55.664,-62.500,53.223
1706612754.480,-46.875,-123.535,-58.594,-75.684,-62.012
1706612754.484,-53.223,-125.000,-55.176,-73.242,-54.688
1706612754.488,-38.086,-147.461,-58.105,-56.152,69.336
1706612754.492,-41.992,-151.855,-57.617,-48.340,109.375
1706612754.496,-38.574,-143.555,-56.641,-61.523,23.926
1706612754.499,-26.855,-128.906,-56.152,-64.941,-142.578
1706612754.503,-19.531,-154.297,-59.082,-57.617,-23.438
1706612754.507,-26.855,-162.598,-61.523,-64.453,210.938
1706612754.511,-44.434,-111.816,-55.664,-88.867,4.883
1706612754.515,-39.551,-122.559,-56.641,-93.750,-127.441
1706612754.517,-14.648,-161.133,-63.477,-83.008,-1.953
1706612754.521,-8.789,-134.277,-59.082,-81.543,-6.348
1706612754.525,-7.812,-114.258,-54.199,-69.824,-103.027
1706612754.529,-0.977,-130.371,-56.641,-61.035,-70.801
1706612754.533,-20.020,-138.184,-51.758,-64.453,-8.789
1706612754.537,-38.086,-139.648,-50.781,-57.617,69.336
1706612754.541,-46.387,-129.395,-50.293,-51.270,166.504
1706612754.544,-53.711,-140.137,-54.199,-48.828,33.203
1706612754.548,-32.227,-178.711,-61.035,-41.016,146.484
1706612754.552,-18.555,-134.277,-58.105,-64.941,130.371
1706612754.556,-32.227,-112.305,-55.664,-72.754,-104.980
1706612754.560,-43.945,-138.184,-51.758,-55.664,-67.383
1706612754.562,-46.875,-144.043,-52.246,-47.363,118.164
1706612754.566,-48.828,-139.648,-56.152,-43.945,128.418
1706612754.570,-48.828,-124.023,-56.152,-51.270,-41.992
1706612754.574,-40.527,-151.367,-57.129,-50.293,-31.738
1706612754.578,-37.598,-166.016,-60.547,-41.504,107.422
1706612754.582,-34.180,-135.254,-60.059,-49.316,8.789
1706612754.586,-23.926,-125.488,-52.734,-49.316,-28.320
1706612754.589,-21.973,-149.902,-54.199,-44.922,-25.879
1706612754.593,-26.367,-150.879,-61.035,-47.852,84.961
1706612754.597,-41.016,-104.004,-54.688,-64.941,-58.105
1706612754.601,-34.180,-123.047,-54.199,-59.082,-157.715
1706612754.605,-41.992,-143.066,-59.082,-45.898,40.039
1706612754.608,-51.758,-120.605,-57.129,-55.176,49.805
1706612754.612,-37.109,-118.164,-52.246,-51.758,-106.445
1706612754.616,-37.109,-138.184,-52.246,-48.340,15.625
1706612754.620,-39.062,-156.250,-51.270,-39.551,99.609
1706612754.624,-19.531,-123.047,-48.828,-37.598,-8.789
1706612754.628,-28.809,-117.188,-55.664,-52.734,73.730
1706612754.632,-36.133,-137.695,-58.594,-61.035,84.473
1706612754.635,-11.719,-152.832,-57.617,-54.688,122.559
1706612754.639,-19.531,-108.887,-55.176,-55.664,77.637
1706612754.643,-17.090,-97.168,-53.223,-40.527,-105.469
1706612754.647,-25.391,-125.977,-51.270,-27.344,-129.395
1706612754.651,-48.340,-118.164,-50.293,-44.434,-70.312
1706612754.652,-38.086,-118.652,-45.410,-52.246,-47.363
1706612754.656,-33.691,-127.441,-50.781,-42.969,10.742
1706612754.660,-15.625,-130.859,-58.105,-31.250,131.348
1706612754.664,-21.484,-126.465,-54.199,-39.062,186.035
1706612754.668,-27.832,-117.188,-51.758,-51.758,149.902
1706612754.672,-32.715,-119.141,-54.688,-31.738,123.535
1706612754.676,-51.270,-147.461,-61.523,-23.438,169.922
1706612754.679,-35.156,-167.480,-63.477,-17.090,296.387
1706612754.683,-21.973,-102.051,-54.688,-14.160,43.945
1706612754.687,2.441,-98.633,-50.781,-35.156,-169.434
1706612754.691,-0.488,-129.395,-53.223,-41.504,-4.395
1706612754.695,-17.090,-116.699,-52.734,-36.133,-43.945
1706612754.698,-22.461,-118.164,-50.781,-26.855,-74.707
1706612754.702,-15.137,-132.812,-47.852,-8.789,-5.859
1706612754.706,-30.762,-140.625,-49.805,-14.648,70.312
1706612754.710,-41.016,-124.512,-49.805,-25.879,6.348
1706612754.714,-37.109,-111.328,-44.434,-18.555,-66.895
1706612754.718,-16.113,-134.766,-44.434,-24.414,132.324
1706612754.722,0.000,-161.133,-48.828,-19.043,405.762
1706612754.725,-34.668,-132.324,-47.852,-29.297,194.336
1706612754.729,-53.711,-99.121,-50.293,-40.527,-61.523
1706612754.733,-22.949,-125.488,-51.270,-26.855,-22.949
1706612754.737,-3.418,-147.461,-52.246,-10.742,83.496
1706612754.741,-24.414,-109.375,-57.129,-24.902,4.883
1706612754.742,-43.457,-120.605,-62.012,-41.504,-90.820
1706612754.746,-50.293,-148.926,-64.453,-33.691,26.855
1706612754.750,-56.641,-127.930,-61.035,-42.480,34.668
1706612754.754,-28.809,-117.676,-58.594,-44.434,34.180
1706612754.758,-31.250,-125.488,-58.105,-38.086,58.105
1706612754.762,-47.852,-160.156,-60.059,-30.762,218.750
1706612754.766,-45.410,-190.430,-70.312,-21.484,432.617
1706612754.769,-67.871,-125.488,-64.453,-37.598,122.070
1706612754.773,-72.266,-118.652,-56.641,-34.180,-136.230
1706612754.777,-36.621,-150.879,-65.430,-19.043,98.633
1706612754.781,-13.672,-126.953,-64.453,-24.902,4.883
1706612754.785,-27.344,-119.629,-59.570,-29.785,-147.949
1706612754.802,-40.527,-133.789,-61.035,-36.133,-45.410
1706612754.806,-20.020,-153.809,-62.988,-35.645,44.922
1706612754.810,-35.645,-134.277,-64.453,-40.039,-4.883
1706612754.814,-51.270,-117.188,-57.617,-39.551,-28.320
1706612754.818,-36.133,-134.766,-55.664,-21.973,68.359
1706612754.822,-49.316,-159.668,-62.500,-30.273,107.422
1706612754.826,-46.387,-144.531,-64.453,-36.621,85.449
1706612754.829,-40.039,-122.070,-62.988,-39.551,48.828
1706612754.833,-39.062,-136.719,-63.965,-41.504,-63.477
1706612754.837,-40.039,-174.316,-69.824,-21.973,99.609
1706612754.841,-44.922,-136.719,-62.500,-23.926,76.660
1706612754.845,-38.086,-118.164,-56.641,-23.926,-41.992
1706612754.847,-19.043,-142.090,-58.594,-19.531,148.438
1706612754.851,-0.488,-159.668,-64.453,-30.762,455.566
1706612754.855,-18.555,-115.723,-63.965,-44.922,148.926
1706612754.859,-37.109,-105.469,-54.199,-41.016,-71.777
1706612754.863,-31.738,-139.160,-55.176,-41.504,74.707
1706612754.867,-26.367,-141.113,-55.664,-41.016,161.621
1706612754.871,-35.645,-133.301,-51.270,-51.758,116.699
1706612754.874,-42.969,-125.488,-48.340,-61.035,-27.832
1706612754.878,-42.480,-152.344,-51.758,-37.109,132.812
1706612754.882,-40.039,-150.391,-54.199,-18.555,236.816
1706612754.886,-30.762,-104.492,-49.805,-45.898,-36.133
1706612754.890,-35.156,-118.652,-50.293,-60.547,-22.461
1706612754.892,-29.297,-133.789,-54.199,-43.457,149.902
1706612754.896,-17.578,-134.766,-58.105,-34.180,122.070
1706612754.900,-38.086,-127.441,-54.688,-30.762,30.273
1706612754.904,-40.527,-132.324,-56.641,-26.855,-53.711
1706612754.908,-31.738,-161.133,-61.523,-24.414,-25.879
1706612754.912,-30.762,-138.672,-55.664,-35.156,-30.273
1706612754.916,-30.273,-118.164,-53.223,-40.039,-2.441
1706612754.919,-34.668,-126.953,-51.270,-24.414,105.469
1706612754.923,-25.879,-156.250,-56.641,-11.230,288.086
1706612754.927,-32.715,-118.164,-54.688,-30.273,149.902
1706612754.931,-31.738,-104.004,-47.363,-51.758,-69.336
1706612754.935,-26.855,-124.023,-49.316,-41.504,-19.531
1706612754.937,-33.691,-125.000,-52.734,-24.414,3.418
1706612754.941,-6.836,-133.301,-57.617,-21.484,19.531
1706612754.945,11.230,-119.629,-56.152,-29.785,-73.730
1706612754.949,-11.230,-147.461,-48.828,-23.926,-30.762
1706612754.953,-30.762,-155.762,-48.340,-30.273,128.906
1706612754.957,-67.871,-111.816,-51.270,-66.895,137.695
1706612754.961,-66.406,-104.980,-49.805,-67.383,87.402
1706612754.964,-34.180,-135.254,-51.758,-58.594,84.473
1706612754.968,-32.715,-151.855,-55.176,-62.012,231.934
1706612754.972,-25.391,-94.238,-55.176,-60.547,-40.527
1706612754.976,-15.137,-100.586,-65.918,-54.688,-170.410
1706612754.980,-31.738,-133.301,-67.383,-49.805,-2.441
1706612754.982,-39.551,-117.676,-61.523,-49.805,-54.199
1706612754.986,-35.156,-115.723,-57.129,-52.246,-130.371
1706612754.990,-31.738,-130.371,-57.129,-52.734,-118.652
1706612754.994,-32.227,-135.254,-63.477,-62.500,-45.898
1706612754.998,-8.789,-124.023,-59.570,-65.430,-26.855
1706612755.002,1.465,-128.906,-58.594,-63.477,-13.672
1706612755.006,-13.184,-141.113,-62.012,-71.289,19.531
1706612755.009,-38.086,-167.480,-64.941,-64.941,271.484
1706612755.013,-63.477,-124.512,-65.430,-60.059,237.793
1706612755.017,-54.688,-95.215,-65.918,-59.082,-137.207
1706612755.021,-44.922,-128.418,-68.848,-42.969,-88.379
1706612755.025,-49.316,-120.117,-67.383,-46.387,60.547
1706612755.027,-44.434,-116.699,-66.406,-68.848,7.324
1706612755.031,-41.016,-128.906,-64.941,-64.453,32.715
1706612755.035,-43.457,-140.625,-67.383,-49.805,116.699
1706612755.039,-35.645,-132.812,-61.523,-51.270,140.625
1706612755.043,-21.973,-107.422,-54.199,-57.129,6.348
1706612755.047,-17.090,-114.746,-54.199,-57.617,6.348
1706612755.051,-15.137,-132.812,-58.105,-49.805,168.945
1706612755.054,-0.977,-133.789,-59.570,-39.062,290.527
1706612755.058,-18.555,-110.352,-55.664,-37.598,129.883
1706612755.062,-41.992,-118.652,-55.176,-42.969,-54.688
1706612755.066,-46.875,-141.113,-58.594,-47.852,25.391
1706612755.070,-60.547,-125.000,-55.176,-66.406,96.191
1706612755.072,-63.477,-114.746,-54.199,-76.660,-47.363
1706612755.076,-46.875,-130.859,-52.246,-62.012,-92.285
1706612755.080,-43.945,-138.672,-50.781,-55.664,-31.738
1706612755.084,-46.387,-125.488,-49.316,-70.312,-48.828
1706612755.088,-33.691,-122.559,-45.410,-62.012,-103.516
1706612755.092,-38.574,-147.949,-45.898,-39.551,-16.602
1706612755.096,-39.551,-168.945,-49.805,-35.645,318.848
1706612755.099,-33.203,-128.418,-52.246,-56.152,186.523
1706612755.103,-33.691,-110.840,-53.223,-70.312,-57.617
1706612755.107,-49.316,-136.230,-54.199,-65.918,4.883
1706612755.111,-56.641,-141.113,-55.176,-64.453,66.406
1706612755.115,-41.992,-140.625,-55.176,-62.500,17.090
1706612755.117,-33.203,-133.301,-48.340,-60.547,-42.969
1706612755.121,-31.250,-142.578,-47.363,-57.617,44.922
1706612755.125,-38.086,-155.762,-54.688,-57.617,226.562
1706612755.129,-58.105,-113.281,-50.781,-62.988,76.660
1706612755.133,-55.176,-119.141,-46.387,-56.641,-109.863
1706612755.137,-29.785,-152.344,-47.852,-51.758,83.008
1706612755.141,-24.414,-138.184,-50.781,-61.035,156.250
1706612755.144,-31.250,-106.934,-56.641,-69.824,-34.668
1706612755.148,-33.203,-114.746,-64.453,-51.758,-49.805
1706612755.152,-50.781,-152.832,-60.059,-35.645,98.145
1706612755.156,-54.688,-133.301,-50.293,-51.758,105.469
1706612755.160,-51.270,-110.840,-50.293,-72.754,-81.055
1706612755.164,-47.852,-133.301,-50.293,-62.988,-86.914
1706612755.168,-36.621,-151.855,-51.270,-41.992,129.395
1706612755.172,-34.180,-126.953,-51.758,-44.922,34.668
1706612755.176,-26.367,-119.141,-53.711,-51.270,-153.320
1706612755.180,-25.879,-144.043,-56.152,-47.363,-119.141
1706612755.184,-39.551,-173.828,-56.152,-42.969,199.707
1706612755.188,-46.387,-139.648,-54.688,-47.852,156.738
1706612755.191,-42.969,-104.004,-48.340,-43.457,-86.914
1706612755.195,-27.832,-133.301,-48.828,-30.762,-56.152
1706612755.199,-24.414,-161.621,-53.223,-42.480,120.605
1706612755.203,-33.203,-124.023,-54.688,-71.289,-9.277
1706612755.207,-42.969,-110.352,-52.734,-62.500,-73.730
1706612755.222,-48.340,-136.719,-50.293,-37.598,123.535
1706612755.226,-45.898,-140.137,-52.246,-38.086,225.586
1706612755.230,-37.109,-113.770,-47.363,-57.617,87.402
1706612755.234,-37.109,-118.164,-45.410,-63.477,12.207
1706612755.238,-47.363,-141.602,-50.781,-49.316,125.488
1706612755.242,-33.203,-153.809,-52.734,-34.180,338.867
1706612755.246,-34.668,-117.188,-51.270,-50.781,186.035
1706612755.249,-41.992,-107.910,-53.711,-63.477,-40.039
1706612755.253,-30.762,-133.301,-52.246,-55.176,51.758
1706612755.257,-33.203,-117.188,-48.340,-51.758,64.941
1706612755.261,-32.715,-98.145,-51.758,-51.270,-115.723
1706612755.265,-18.555,-115.723,-53.711,-50.293,-132.324
1706612755.267,-11.230,-134.766,-54.688,-55.176,-87.402
1706612755.271,-35.645,-112.305,-52.734,-69.336,-95.215
1706612755.275,-39.551,-104.492,-52.246,-69.336,-159.180
1706612755.279,-16.602,-118.652,-48.828,-63.477,-123.047
1706612755.283,-16.602,-125.488,-51.270,-68.359,15.625
1706612755.287,-17.090,-131.836,-53.711,-84.473,27.344
1706612755.291,-5.859,-129.883,-50.781,-102.051,-47.852
1706612755.294,-16.602,-134.766,-52.246,-86.914,34.668
1706612755.298,-23.926,-168.457,-54.199,-46.875,281.250
1706612755.302,-19.531,-131.836,-45.898,-33.691,160.156
1706612755.306,-25.391,-103.027,-46.387,-51.758,-135.742
1706612755.310,-47.363,-131.348,-45.410,-73.730,-114.258
1706612755.312,-57.617,-134.766,-43.457,-81.543,-38.574
1706612755.316,-56.152,-140.137,-52.734,-66.406,10.742
1706612755.320,-47.852,-133.301,-50.293,-59.082,-44.922
1706612755.324,-39.551,-147.949,-44.922,-62.012,14.160
1706612755.328,-49.805,-146.484,-47.852,-65.430,123.535
1706612755.332,-54.199,-131.348,-47.363,-69.336,102.539
1706612755.336,-45.410,-130.371,-47.363,-65.430,82.031
1706612755.339,-46.875,-155.762,-54.688,-46.387,129.883
1706612755.343,-43.457,-173.828,-60.547,-42.969,330.078
1706612755.347,-37.598,-115.723,-55.176,-68.359,124.512
1706612755.351,-51.270,-123.047,-55.176,-67.383,-45.410
1706612755.355,-60.059,-163.574,-62.012,-43.945,-5.859
1706612755.357,-37.109,-137.207,-59.082,-43.457,12.695
1706612755.361,-47.363,-125.488,-54.199,-56.152,13.672
1706612755.365,-60.059,-153.320,-55.176,-62.500,-38.086
1706612755.369,-42.969,-153.809,-54.199,-59.570,-22.949
1706612755.373,-28.809,-140.625,-56.152,-53.711,-117.188
1706612755.377,-21.973,-148.438,-61.035,-46.875,0.000
1706612755.381,-26.367,-159.668,-60.547,-44.922,139.648
1706612755.384,-37.598,-180.664,-62.500,-53.711,195.801
1706612755.388,-44.434,-134.277,-60.059,-73.730,122.559
1706612755.392,-42.969,-112.793,-54.199,-70.312,-75.195
1706612755.396,-51.758,-143.066,-53.223,-50.293,-26.855
1706612755.400,-35.156,-131.836,-51.758,-43.945,110.840
1706612755.402,-26.855,-130.371,-48.340,-56.641,-7.812
1706612755.406,-44.434,-136.230,-49.316,-73.242,-48.828
1706612755.410,-46.875,-142.090,-55.176,-53.223,75.195
1706612755.414,-48.340,-141.113,-58.105,-35.645,209.473
1706612755.418,-64.453,-115.234,-54.199,-54.688,33.691
1706612755.422,-52.246,-127.441,-62.988,-64.941,-83.496
1706612755.426,-30.273,-152.344,-68.848,-58.594,94.727
1706612755.429,-49.316,-157.227,-63.477,-53.711,218.262
1706612755.433,-63.477,-118.164,-65.918,-71.289,-52.246
1706612755.437,-41.992,-125.488,-73.242,-56.641,-171.387
1706612755.441,-24.902,-154.297,-67.383,-39.062,-14.648
1706612755.445,-46.875,-148.438,-54.688,-55.664,-50.293
1706612755.448,-68.359,-146.484,-57.617,-73.730,-119.141
1706612755.452,-60.059,-158.691,-60.059,-59.570,-17.578
1706612755.456,-47.363,-171.387,-62.988,-46.387,117.676
1706612755.460,-47.852,-151.855,-67.383,-54.688,66.406
1706612755.464,-42.480,-139.648,-67.871,-69.336,-37.598
1706612755.468,-43.945,-164.062,-69.824,-73.242,-24.902
1706612755.472,-58.594,-184.082,-76.660,-52.246,230.469
1706612755.475,-52.734,-137.695,-74.707,-41.992,137.695
1706612755.479,-20.020,-115.234,-63.965,-47.363,-46.387
1706612755.483,-25.879,-140.137,-57.617,-53.223,27.344
1706612755.487,-59.570,-136.719,-63.965,-55.176,37.109
1706612755.491,-70.312,-130.371,-69.824,-66.406,-72.266
1706612755.491,-45.410,-141.113,-63.965,-69.336,-93.750
1706612755.495,-27.344,-158.691,-59.570,-56.641,95.215
1706612755.499,-44.922,-158.691,-61.523,-59.570,108.887
1706612755.503,-48.340,-133.789,-62.012,-63.965,-69.824
1706612755.507,-37.598,-119.141,-61.035,-59.082,-125.000
1706612755.511,-27.344,-149.902,-63.477,-41.016,121.094
1706612755.515,-30.273,-174.316,-68.359,-33.691,406.250
1706612755.518,-30.273,-122.070,-64.941,-64.941,88.867
1706612755.522,-31.250,-121.582,-63.965,-68.359,-129.395
1706612755.526,-48.340,-155.273,-66.895,-49.316,-70.801
1706612755.530,-40.527,-135.742,-68.359,-42.480,-63.965
1706612755.534,-18.555,-127.441,-66.406,-48.340,6.348
1706612755.552,-16.602,-141.602,-61.035,-64.941,94.727
1706612755.556,-26.367,-156.250,-64.453,-69.824,56.152
1706612755.560,-38.574,-142.578,-65.430,-63.965,-62.988
1706612755.564,-41.992,-124.512,-64.941,-59.082,-19.043
1706612755.568,-34.180,-144.531,-70.801,-54.688,78.613
1706612755.572,-36.133,-154.297,-69.336,-51.758,147.949
1706612755.576,-42.480,-140.625,-73.242,-59.570,124.512
1706612755.579,-34.668,-137.695,-78.613,-63.965,41.504
1706612755.583,-23.926,-138.672,-77.637,-48.828,58.594
1706612755.587,-30.273,-174.316,-80.566,-31.738,285.645
1706612755.591,-39.062,-133.789,-69.336,-56.152,175.781
1706612755.595,-44.434,-106.445,-61.035,-71.289,-84.961
1706612755.597,-31.738,-144.531,-62.500,-47.852,-58.594
1706612755.601,-11.719,-136.230,-58.594,-28.809,104.492
1706612755.605,-9.766,-113.281,-67.383,-57.129,23.926
1706612755.609,-18.066,-116.211,-69.336,-81.055,-104.980
1706612755.613,-38.086,-135.742,-65.430,-84.473,-54.199
1706612755.617,-62.988,-144.531,-70.801,-89.844,35.156
1706612755.621,-76.660,-128.418,-73.242,-89.844,33.203
1706612755.624,-89.355,-116.699,-75.195,-98.633,-36.621
1706612755.628,-68.359,-143.066,-79.102,-101.074,111.816
1706612755.632,-60.547,-157.715,-81.055,-105.957,297.852
1706612755.636,-82.031,-97.168,-73.730,-127.930,-0.488
1706612755.640,-88.867,-94.238,-71.777,-129.395,-139.160
1706612755.642,-101.074,-131.836,-75.684,-120.117,-36.621
1706612755.646,-113.281,-115.723,-85.449,-127.930,-50.781
1706612755.650,-114.258,-112.305,-89.355,-142.090,-141.602
1706612755.654,-107.910,-123.535,-80.078,-135.254,-79.102
1706612755.658,-100.098,-133.301,-75.195,-115.723,68.359
1706612755.662,-88.867,-134.766,-76.172,-117.188,66.895
1706612755.666,-66.406,-128.418,-77.148,-119.629,65.918
1706612755.669,-57.617,-138.672,-77.637,-116.699,124.512
1706612755.673,-27.344,-161.621,-76.172,-101.562,253.418
1706612755.677,-25.879,-117.676,-73.730,-89.355,133.301
1706612755.681,-68.359,-104.492,-69.336,-83.496,-3.906
1706612755.685,-71.777,-125.000,-65.430,-72.754,51.758
1706612755.686,-67.871,-130.371,-68.848,-73.242,94.238
1706612755.690,-62.012,-123.535,-71.777,-86.914,77.637
1706612755.694,-54.688,-110.352,-67.871,-84.961,-42.480
1706612755.698,-44.434,-140.625,-65.430,-64.453,-101.074
1706612755.702,-31.738,-146.973,-63.965,-55.664,99.121
1706612755.706,-27.832,-126.465,-67.871,-78.125,108.398
1706612755.710,-34.180,-130.371,-72.266,-89.355,19.043
1706612755.713,-38.574,-147.461,-70.312,-65.918,82.031
1706612755.717,-33.203,-166.016,-70.801,-46.387,278.809
1706612755.721,-38.574,-123.047,-65.430,-62.988,-1.953
1706612755.725,-34.180,-129.395,-64.941,-79.102,-201.660
1706612755.729,-39.551,-160.156,-72.266,-80.566,-36.621
1706612755.732,-56.641,-148.926,-68.848,-71.777,52.246
1706612755.736,-57.617,-125.977,-61.523,-58.594,-43.945
1706612755.740,-31.250,-136.719,-64.941,-45.410,-63.965
1706612755.744,-15.625,-167.480,-67.383,-45.410,60.059
1706612755.748,-36.133,-140.625,-65.918,-77.637,6.836
1706612755.752,-43.457,-130.371,-64.453,-73.242,-12.207
1706612755.756,-45.898,-147.949,-58.594,-44.922,60.547
1706612755.759,-40.527,-166.016,-59.570,-36.621,230.469
1706612755.763,-39.062,-125.000,-61.035,-55.664,106.934
1706612755.767,-40.039,-107.422,-60.547,-79.102,-110.840
1706612755.771,-40.527,-136.230,-67.383,-74.707,-101.074
1706612755.775,-49.805,-132.324,-67.383,-64.453,-51.758
1706612755.778,-17.578,-132.812,-65.430,-56.641,3.418
1706612755.782,-8.301,-138.184,-69.336,-53.711,-24.414
1706612755.786,-34.180,-146.484,-68.848,-59.570,55.176
1706612755.790,-55.176,-157.227,-70.312,-80.566,326.660
1706612755.794,-75.195,-118.652,-67.383,-88.379,162.109
1706612755.798,-59.082,-127.441,-63.965,-68.359,-7.324
1706612755.802,-39.062,-154.785,-70.801,-61.523,149.902
1706612755.805,-33.691,-173.340,-71.777,-70.801,410.645
1706612755.809,-41.016,-143.555,-69.824,-77.637,401.855
1706612755.813,-40.039,-104.492,-65.430,-63.965,-5.859
1706612755.817,-34.668,-138.672,-65.430,-54.199,-60.059
1706612755.821,-25.879,-145.508,-65.918,-62.012,-69.336
1706612755.822,-26.855,-128.906,-67.871,-81.543,-191.895
1706612755.826,-55.176,-133.789,-73.730,-90.820,-193.848
1706612755.830,-70.312,-176.758,-74.707,-56.641,152.832
1706612755.834,-53.711,-157.715,-75.684,-51.270,239.746
1706612755.838,-35.156,-116.211,-67.871,-59.082,-30.273
1706612755.842,-32.715,-146.973,-64.453,-61.035,69.336
1706612755.846,-30.273,-177.734,-70.312,-66.406,390.625
1706612755.849,-48.828,-166.016,-69.336,-66.895,514.160
1706612755.853,-41.504,-111.328,-63.965,-76.660,187.988
1706612755.857,-20.508,-115.723,-62.500,-75.195,-73.242
1706612755.861,-48.828,-137.207,-62.500,-73.730,-117.676
1706612755.865,-57.617,-126.465,-62.988,-90.820,-163.086
1706612755.882,-35.156,-122.559,-62.012,-79.102,-157.227
1706612755.886,-29.785,-153.320,-61.523,-55.664,5.859
1706612755.890,-35.645,-157.715,-63.477,-58.594,104.004
1706612755.894,-47.363,-125.488,-65.430,-74.219,-53.223
1706612755.898,-36.621,-124.023,-59.570,-56.641,-117.188
1706612755.902,-46.387,-163.574,-58.105,-46.875,31.738
1706612755.906,-53.223,-164.551,-61.523,-44.434,170.898
1706612755.909,-44.922,-127.930,-64.941,-51.270,-26.367
1706612755.913,-41.504,-124.512,-69.336,-77.637,-101.074
1706612755.917,-39.062,-122.559,-62.988,-71.777,34.668
1706612755.921,-41.016,-104.980,-54.688,-51.758,49.805
1706612755.925,-29.297,-142.090,-59.082,-51.758,127.441
1706612755.926,-27.344,-142.578,-60.059,-62.500,174.316
1706612755.930,-39.551,-97.656,-51.270,-65.918,-110.840
1706612755.934,-39.062,-120.117,-51.758,-45.898,-199.707
1706612755.938,-38.086,-134.766,-52.734,-32.227,-83.008
1706612755.942,-47.852,-123.047,-45.898,-36.133,-107.422
1706612755.946,-48.340,-129.395,-48.828,-49.316,-119.141
1706612755.950,-52.246,-140.625,-53.711,-31.738,-24.902
1706612755.953,-63.965,-158.691,-60.547,-17.090,201.172
1706612755.957,-55.664,-114.746,-60.547,-27.832,98.145
1706612755.961,-42.969,-91.797,-60.547,-43.457,-222.168
1706612755.965,-27.832,-123.047,-60.059,-47.852,-98.633
1706612755.969,-15.625,-133.789,-57.129,-45.410,87.891
1706612755.972,-41.016,-109.375,-61.523,-62.988,0.488
1706612755.976,-41.504,-118.164,-60.059,-58.105,-88.379
1706612755.980,-43.457,-151.855,-53.711,-48.828,-128.906
1706612755.984,-63.477,-128.418,-54.688,-70.801,-42.969
1706612755.988,-83.008,-122.070,-57.129,-78.613,-36.621
1706612755.992,-84.473,-140.137,-53.223,-69.824,-41.016
1706612755.996,-47.852,-151.367,-57.617,-65.430,199.219
1706612755.999,-34.180,-146.484,-63.965,-64.453,331.055
1706612756.003,-43.945,-105.957,-66.406,-89.844,6.348
1706612756.007,-37.598,-117.676,-65.430,-98.145,-122.559
1706612756.011,-26.855,-143.555,-66.895,-79.102,80.566
1706612756.015,-30.273,-119.629,-68.359,-83.984,41.992
1706612756.016,-26.855,-106.445,-63.965,-105.469,-13.184
1706612756.020,-23.926,-130.859,-59.082,-74.707,2.441
1706612756.024,-40.039,-143.555,-60.059,-64.941,83.008
1706612756.028,-56.152,-119.141,-63.477,-98.145,95.215
1706612756.032,-68.848,-117.188,-60.547,-76.660,-59.082
1706612756.036,-60.547,-139.160,-56.152,-52.734,43.945
1706612756.040,-40.527,-160.645,-58.594,-60.547,277.832
1706612756.043,-38.574,-116.699,-58.105,-69.824,93.750
1706612756.047,-39.062,-110.352,-60.547,-56.641,-121.582
1706612756.051,-24.902,-133.789,-64.453,-47.852,-123.535
1706612756.055,-35.645,-125.488,-60.059,-48.340,55.176
1706612756.059,-51.758,-131.348,-62.012,-60.547,71.289
1706612756.064,-57.617,-124.023,-63.477,-55.664,-9.766
1706612756.068,-41.504,-125.488,-57.129,-22.949,100.586
1706612756.072,-36.621,-145.996,-62.988,-25.879,250.488
1706612756.076,-46.387,-116.699,-61.523,-47.852,22.949
1706612756.080,-29.785,-111.328,-60.059,-53.223,-68.848
1706612756.084,-21.973,-148.926,-67.871,-54.199,80.078
1706612756.088,-32.227,-145.020,-67.871,-55.664,144.043
1706612756.091,-35.645,-113.281,-61.035,-46.387,31.738
1706612756.095,3.906,-116.211,-53.711,-39.551,-93.262
1706612756.099,-4.395,-155.273,-57.129,-44.922,53.223
1706612756.103,-42.480,-141.113,-60.547,-59.570,50.781
1706612756.107,-46.875,-121.582,-55.176,-62.988,-130.371
1706612756.123,-46.387,-131.348,-57.617,-49.805,-74.219
1706612756.127,-27.832,-138.672,-67.383,-42.480,0.977
1706612756.131,-9.277,-145.508,-66.895,-48.828,4.395
1706612756.135,-9.766,-127.930,-65.430,-58.594,-23.438
1706612756.139,-16.602,-136.719,-66.895,-56.152,1.953
1706612756.143,-19.531,-173.828,-65.918,-36.133,338.867
1706612756.147,-16.602,-143.066,-60.547,-42.480,270.996
1706612756.150,-5.859,-110.352,-56.641,-51.758,-10.254
1706612756.154,-17.578,-141.113,-52.734,-45.898,-17.090
1706612756.158,-30.762,-168.945,-56.152,-44.434,137.207
1706612756.162,-33.203,-129.395,-62.988,-62.988,89.844
1706612756.166,-29.297,-132.812,-63.477,-62.012,26.367
1706612756.167,-24.414,-145.996,-62.500,-47.363,57.617
1706612756.171,-26.855,-131.836,-59.570,-56.152,73.242
1706612756.175,-24.902,-108.887,-54.199,-68.848,-11.719
1706612756.179,-25.879,-116.211,-57.617,-52.246,-57.129
1706612756.183,-23.438,-143.066,-65.430,-38.086,12.207
1706612756.187,-9.766,-144.043,-66.406,-48.340,118.652
1706612756.191,-18.555,-126.953,-64.941,-64.941,97.656
1706612756.194,-28.809,-112.305,-70.312,-64.941,-102.539
1706612756.198,-23.438,-137.207,-80.078,-45.410,134.277
1706612756.202,-15.625,-160.156,-72.266,-21.973,349.609
1706612756.206,-29.785,-108.398,-51.758,-41.992,55.176
1706612756.210,-41.992,-124.023,-49.805,-63.965,-69.824
1706612756.212,-31.738,-153.320,-51.270,-57.617,2.441
1706612756.216,-31.250,-129.395,-49.805,-61.523,8.301
1706612756.220,-34.180,-126.465,-49.316,-61.523,-36.133
1706612756.224,-28.320,-143.066,-49.316,-57.617,-43.945
1706612756.228,-35.645,-145.996,-57.129,-61.523,12.207
1706612756.232,-39.062,-139.648,-79.102,-58.594,-45.410
1706612756.236,-31.250,-133.301,-92.773,-53.711,-37.598
1706612756.239,-15.137,-133.301,-99.609,-41.016,29.785
1706612756.243,-3.418,-164.551,-104.492,-27.344,259.277
1706612756.247,-30.273,-122.070,-96.680,-54.688,318.359
1706612756.251,-51.758,-100.586,-88.867,-69.824,-19.043
1706612756.255,-45.410,-143.555,-91.309,-53.223,12.207
1706612756.257,-52.246,-137.207,-97.656,-46.387,211.914
1706612756.261,-41.504,-111.816,-96.680,-41.504,36.133
1706612756.265,-20.996,-125.977,-94.238,-57.617,-96.191
1706612756.269,-32.715,-141.602,-93.750,-77.637,-74.219
1706612756.273,-44.434,-128.418,-90.332,-77.148,-42.969
1706612756.277,-42.480,-132.812,-88.867,-60.059,25.391
1706612756.281,-30.762,-128.906,-91.797,-49.316,83.008
1706612756.284,-7.324,-143.555,-95.703,-57.617,215.820
1706612756.288,-21.484,-143.555,-92.285,-70.312,203.125
1706612756.292,-55.664,-108.887,-84.473,-75.684,27.832
1706612756.296,-49.316,-114.258,-82.031,-60.059,-19.531
1706612756.300,-25.879,-141.113,-83.008,-43.457,62.500
1706612756.302,-21.973,-122.070,-83.008,-60.059,11.230
1706612756.306,-15.137,-105.957,-80.078,-82.520,-170.898
1706612756.310,-26.367,-117.188,-76.660,-72.266,-110.840
1706612756.314,-41.016,-114.258,-76.172,-56.641,34.180
1706612756.318,-28.809,-107.422,-80.078,-47.852,4.883
1706612756.322,-17.090,-119.629,-81.055,-42.969,-5.859
1706612756.326,-26.855,-132.812,-79.102,-53.223,36.133
1706612756.329,-40.527,-152.832,-81.055,-67.871,170.898
1706612756.333,-52.246,-112.793,-80.566,-80.566,172.852
1706612756.337,-35.645,-101.074,-78.125,-77.637,-22.461
1706612756.341,-23.438,-131.836,-83.008,-80.078,-17.090
1706612756.345,-26.855,-128.906,-82.031,-86.426,109.863
1706612756.347,-31.250,-115.723,-79.102,-84.961,83.984
1706612756.351,-31.250,-102.051,-81.055,-79.102,7.324
1706612756.355,-27.344,-130.371,-70.312,-52.246,28.320
1706612756.359,-54.688,-138.672,-64.941,-54.688,134.766
1706612756.363,-62.988,-99.121,-63.965,-77.637,60.059
1706612756.367,-63.965,-112.793,-62.500,-86.914,8.789
1706612756.371,-54.199,-138.184,-65.918,-79.590,175.293
1706612756.374,-41.016,-132.324,-68.848,-69.824,279.785
1706612756.378,-31.250,-97.656,-62.500,-66.406,2.930
1706612756.382,-28.809,-107.422,-60.059,-62.988,-74.707
1706612756.386,-34.180,-131.836,-64.941,-64.941,-21.484
1706612756.390,-44.922,-122.070,-64.453,-63.965,-119.629
1706612756.393,-42.969,-115.723,-62.012,-48.828,-150.391
1706612756.397,-11.719,-133.789,-65.918,-40.527,-30.273
1706612756.401,-13.672,-145.996,-64.941,-55.664,38.086
1706612756.405,-55.176,-123.535,-60.059,-70.801,-50.293
1706612756.409,-58.594,-117.188,-61.523,-65.918,-101.562
1706612756.413,-36.621,-143.066,-62.012,-55.664,28.320
1706612756.417,-27.832,-173.340,-65.918,-49.805,287.598
1706612756.420,-41.016,-122.070,-64.941,-62.012,223.633
1706612756.424,-49.316,-103.027,-64.941,-73.730,21.484
1706612756.428,-50.781,-132.812,-63.477,-66.406,-44.434
1706612756.432,-47.852,-136.719,-61.523,-51.270,0.977
1706612756.436,-32.227,-123.535,-59.570,-43.945,105.469
1706612756.436,-30.762,-111.816,-53.711,-61.035,-11.719
1706612756.440,-35.645,-136.230,-56.152,-63.477,-24.902
1706612756.444,-32.227,-134.277,-59.082,-52.246,100.586
1706612756.448,-32.227,-114.258,-54.688,-47.852,12.695
1706612756.452,-43.945,-127.441,-50.293,-46.875,-21.484
1706612756.456,-38.574,-148.438,-55.176,-50.781,121.582
1706612756.460,-29.785,-151.855,-55.664,-53.711,365.723
1706612756.463,-43.945,-96.680,-52.734,-67.383,20.508
1706612756.467,-44.922,-107.910,-50.781,-61.035,-223.145
1706612756.471,-18.066,-141.602,-52.246,-47.852,-40.039
1706612756.475,-14.160,-116.699,-57.129,-49.805,-13.184
1706612756.479,-32.715,-111.328,-59.570,-57.129,-133.301
1706612756.497,-51.758,-127.930,-59.570,-54.199,-100.586
1706612756.501,-44.922,-140.137,-58.105,-42.480,28.809
1706612756.505,-25.879,-124.512,-54.688,-39.062,27.832
1706612756.509,-25.879,-114.746,-53.711,-45.410,-9.766
1706612756.513,-32.227,-130.859,-53.711,-52.246,20.996
1706612756.517,-25.391,-145.020,-59.082,-46.875,111.816
1706612756.521,-43.945,-127.441,-61.523,-42.969,112.793
1706612756.524,-41.016,-121.582,-58.105,-43.457,116.211
1706612756.528,-34.668,-135.254,-56.641,-38.086,119.141
1706612756.532,-42.480,-161.133,-62.988,-38.086,302.734
1706612756.536,-39.551,-129.395,-61.523,-54.199,161.133
1706612756.540,-31.738,-116.211,-57.129,-54.199,-53.223
1706612756.542,-8.789,-129.883,-57.617,-53.711,12.207
1706612756.546,-16.602,-117.188,-62.500,-60.059,85.938
1706612756.550,-40.527,-114.258,-60.547,-59.570,-3.418
1706612756.554,-37.109,-126.953,-60.059,-61.035,-151.367
1706612756.558,-25.391,-144.531,-63.477,-61.035,-42.480
1706612756.562,-37.109,-141.113,-62.012,-59.082,186.523
1706612756.566,-37.598,-128.906,-55.664,-60.059,50.781
1706612756.569,-29.785,-116.211,-57.129,-79.590,-165.039
1706612756.573,-28.320,-142.578,-63.965,-65.918,26.855
1706612756.577,-26.367,-159.668,-65.918,-41.992,320.801
1706612756.581,-41.992,-102.539,-62.500,-60.547,96.191
1706612756.585,-44.922,-110.352,-64.941,-66.895,-89.844
1706612756.587,-33.203,-132.812,-70.801,-65.430,31.250
1706612756.591,-43.457,-115.723,-68.359,-72.754,29.297
1706612756.595,-51.270,-116.699,-67.871,-72.266,-84.961
1706612756.599,-27.832,-132.812,-71.777,-66.895,-80.078
1706612756.603,-25.391,-140.137,-69.336,-58.594,84.961
1706612756.607,-41.992,-132.812,-66.895,-53.711,209.473
1706612756.611,-46.387,-121.582,-64.941,-65.918,55.176
1706612756.614,-26.367,-128.906,-63.477,-62.012,9.277
1706612756.618,-31.738,-159.180,-69.336,-41.992,310.059
1706612756.622,-43.945,-127.930,-71.777,-45.898,162.109
1706612756.626,-32.715,-119.629,-71.777,-57.129,-119.629
1706612756.630,-45.898,-145.508,-72.754,-56.641,41.992
1706612756.632,-49.805,-144.531,-74.219,-49.316,304.688
1706612756.636,-37.109,-101.074,-67.871,-43.945,77.148
1706612756.640,-36.621,-101.562,-67.383,-40.527,-52.246
1706612756.644,-34.668,-125.000,-66.895,-45.410,82.031
1706612756.648,-30.273,-110.840,-64.941,-59.570,69.336
1706612756.652,-36.133,-122.559,-69.336,-45.898,-4.395
1706612756.656,-49.805,-123.047,-67.871,-36.621,13.184
1706612756.659,-52.734,-140.137,-68.848,-32.227,123.535
1706612756.663,-52.246,-142.090,-65.430,-32.227,171.387
1706612756.667,-45.898,-95.703,-57.129,-49.805,-71.777
1706612756.671,-40.527,-106.445,-58.105,-55.664,-168.945
1706612756.675,-40.039,-123.047,-61.523,-49.805,-1.465
1706612756.678,-16.602,-117.676,-60.547,-44.922,-55.176
1706612756.682,0.000,-122.559,-65.430,-37.598,-91.309
1706612756.686,-9.277,-135.254,-65.430,-43.457,49.316
1706612756.690,-40.039,-145.996,-63.477,-40.039,79.102
1706612756.694,-66.406,-119.141,-62.500,-29.785,-10.254
1706612756.698,-63.477,-120.117,-61.523,-35.156,-7.812
1706612756.702,-39.551,-137.695,-63.965,-39.551,38.086
1706612756.705,-35.156,-153.809,-67.383,-48.340,186.035
1706612756.709,-54.199,-116.211,-64.453,-63.965,18.066
1706612756.713,-43.945,-100.098,-60.547,-51.758,-199.219
1706612756.717,-23.438,-130.371,-59.082,-33.691,-72.266
1706612756.721,-23.926,-136.719,-58.105,-34.180,89.355
1706612756.721,-29.785,-116.699,-57.617,-41.992,76.172
1706612756.725,-29.297,-108.398,-55.176,-45.898,-142.090
1706612756.729,-44.922,-125.488,-59.082,-36.133,-109.863
1706612756.733,-60.059,-125.488,-68.848,-34.180,126.953
1706612756.737,-46.875,-114.746,-69.336,-41.992,80.566
1706612756.741,-26.367,-114.746,-64.453,-45.898,22.461
1706612756.745,-17.578,-136.230,-61.523,-50.781,127.441
1706612756.748,-28.809,-156.738,-62.988,-39.062,306.641
1706612756.752,-27.832,-104.980,-63.965,-48.340,47.363
1706612756.756,-12.207,-106.445,-65.918,-61.035,-124.023
1706612756.760,-14.648,-142.578,-69.336,-65.430,-2.930
1706612756.764,-35.645,-130.371,-70.312,-82.031,-57.129
1706612756.767,-51.270,-132.812,-67.871,-81.543,-91.797
1706612756.771,-58.594,-142.578,-66.406,-73.730,-37.598
1706612756.775,-48.828,-149.414,-66.895,-63.965,3.906
1706612756.779,-41.016,-143.066,-72.754,-60.059,3.906
1706612756.783,-47.852,-138.672,-73.730,-63.965,-6.348
1706612756.787,-40.527,-159.668,-77.148,-46.875,79.590
1706612756.791,-25.391,-177.734,-77.148,-17.090,362.793
1706612756.794,-41.504,-148.438,-74.707,-45.898,238.770
1706612756.798,-52.734,-118.164,-69.824,-67.871,-76.172
1706612756.802,-44.922,-137.695,-70.801,-61.035,22.461
1706612756.806,-39.551,-162.109,-73.730,-46.387,236.328
1706612756.810,-30.762,-132.324,-66.895,-33.203,144.043
1706612756.811,-23.926,-113.281,-66.406,-38.574,63.965
1706612756.815,-22.949,-141.602,-66.895,-41.992,49.316
1706612756.819,-36.621,-142.090,-63.477,-49.316,51.758
1706612756.823,-49.805,-112.305,-56.152,-43.457,-34.668
1706612756.827,-58.105,-124.023,-53.711,-16.113,-85.938
1706612756.831,-42.969,-150.879,-60.547,-17.578,73.242
1706612756.835,-31.738,-145.020,-68.359,-28.320,136.719
1706612756.838,-30.762,-118.164,-65.918,-33.691,-26.855
1706612756.842,-36.133,-127.930,-61.035,-45.410,-73.242
1706612756.846,-42.480,-156.250,-60.547,-24.414,70.312
1706612756.850,-13.184,-130.859,-62.012,-25.879,212.891
1706612756.854,-0.488,-93.262,-66.895,-47.363,41.504
1706612756.872,-40.527,-119.629,-67.383,-51.758,-71.289
1706612756.876,-65.918,-145.508,-63.965,-59.570,-17.090
1706612756.880,-67.871,-129.883,-67.383,-51.270,-32.227
1706612756.884,-44.434,-118.164,-78.125,-49.805,-67.871
1706612756.888,-17.578,-128.906,-84.473,-31.250,33.691
1706612756.892,-26.855,-146.484,-69.336,-17.578,160.645
1706612756.896,-56.152,-140.137,-58.594,-47.363,121.582
1706612756.899,-61.523,-126.953,-64.453,-50.781,-119.141
1706612756.903,-39.551,-142.090,-63.965,-31.738,-167.480
1706612756.907,-5.859,-168.457,-64.941,-21.973,152.832
1706612756.911,-18.066,-139.160,-58.105,-33.691,68.848
1706612756.915,-50.781,-140.137,-54.199,-35.645,-136.719
1706612756.917,-62.012,-159.668,-58.105,-13.672,66.895
1706612756.921,-54.199,-166.504,-60.059,-9.277,341.309
1706612756.925,-25.391,-126.953,-60.547,-29.297,72.266
1706612756.929,-29.785,-113.281,-60.547,-34.180,-126.953
1706612756.933,-32.715,-139.160,-63.965,-29.297,-4.883
1706612756.937,-30.273,-148.438,-67.383,-19.531,81.055
1706612756.941,-33.203,-142.090,-67.383,-13.184,104.980
1706612756.944,-30.273,-132.812,-66.895,-17.090,6.836
1706612756.948,-30.762,-158.691,-64.453,-21.484,36.133
1706612756.952,-18.066,-152.832,-60.059,-32.715,140.137
1706612756.956,-16.602,-108.887,-56.152,-38.086,-53.223
1706612756.960,-18.066,-123.535,-55.664,-23.438,-52.246
1706612756.962,-13.672,-160.156,-61.035,-14.160,136.719
1706612756.966,-13.672,-144.043,-66.895,-19.531,82.031
1706612756.970,-27.344,-117.676,-61.035,-36.133,-20.996
1706612756.974,-33.203,-136.230,-57.129,-25.391,-36.621
1706612756.978,-25.879,-162.109,-60.547,-2.930,66.406
1706612756.982,-13.184,-142.090,-56.641,-4.883,86.914
1706612756.986,-5.859,-128.418,-56.641,-21.484,62.988
1706612756.989,-15.625,-137.207,-59.082,-37.598,49.805
1706612756.993,-26.367,-156.250,-59.082,-28.809,239.746
1706612756.997,-36.621,-119.141,-56.152,-24.414,136.230
1706612757.001,-32.715,-113.770,-58.594,-26.855,-15.137
1706612757.005,-12.695,-150.391,-65.430,-19.531,149.414
1706612757.007,-13.672,-143.066,-65.918,-37.598,158.203
1706612757.011,-44.922,-123.535,-65.430,-50.781,-14.160
1706612757.015,-52.734,-126.953,-61.035,-23.438,0.488
1706612757.019,-16.602,-142.090,-59.570,-13.672,117.188
1706612757.023,-5.859,-136.719,-62.988,-31.250,0.488
1706612757.027,-32.715,-137.695,-66.406,-45.898,-85.938
1706612757.031,-42.480,-133.789,-68.848,-50.293,-57.617
1706612757.034,-35.156,-144.531,-64.453,-26.367,61.035
1706612757.038,-29.785,-153.320,-63.477,-15.137,312.500
1706612757.042,-22.461,-101.562,-62.012,-38.086,104.004
1706612757.046,-15.625,-109.863,-59.570,-45.898,-33.691
1706612757.050,-36.621,-147.461,-63.477,-46.387,1.953
1706612757.051,-48.828,-133.301,-66.406,-41.992,-22.949
1706612757.055,-39.551,-121.582,-65.430,-36.621,-58.105
1706612757.059,-28.809,-131.836,-62.988,-33.691,-84.473
1706612757.063,-29.785,-137.207,-62.012,-31.738,-117.188
1706612757.067,-31.250,-127.930,-62.988,-33.203,-100.586
1706612757.071,-22.949,-130.371,-61.523,-31.738,-14.160
1706612757.075,-31.250,-130.859,-54.688,-33.691,90.332
1706612757.078,-12.207,-159.668,-59.082,-24.902,295.410
1706612757.082,0.000,-128.418,-53.223,-35.156,215.332
1706612757.086,-21.484,-94.727,-45.410,-49.805,-75.195
1706612757.090,-41.504,-128.906,-53.223,-37.109,-10.742
1706612757.094,-45.898,-137.207,-54.688,-35.156,122.559
1706612757.097,-36.133,-125.000,-57.617,-47.852,-22.461
1706612757.101,-35.645,-126.953,-57.617,-51.270,-84.961
1706612757.105,-30.273,-143.555,-51.758,-37.109,2.930
1706612757.109,-24.902,-128.418,-55.176,-34.668,55.176
1706612757.113,-27.344,-118.164,-57.617,-35.156,-19.531
1706612757.117,-23.926,-140.137,-56.641,-24.902,-102.539
1706612757.121,-17.090,-152.832,-62.012,-29.297,75.684
1706612757.124,-29.297,-148.926,-65.430,-47.852,252.930
1706612757.128,-48.340,-119.141,-64.453,-53.223,2.930
1706612757.132,-45.410,-109.863,-58.594,-41.504,-151.367
1706612757.136,-17.578,-131.836,-57.129,-22.461,79.590
1706612757.140,-20.020,-125.977,-58.105,-31.250,80.566
1706612757.142,-26.855,-107.910,-58.105,-66.895,-109.375
1706612757.146,-34.668,-121.582,-55.176,-60.547,-15.137
1706612757.150,-46.387,-135.742,-59.082,-40.527,95.703
1706612757.154,-37.598,-139.648,-65.918,-45.410,-16.113
1706612757.158,-24.414,-143.066,-65.918,-47.363,-155.273
1706612757.162,-19.043,-157.227,-65.430,-47.852,-30.273
1706612757.166,-27.344,-173.340,-67.871,-52.734,279.785
1706612757.169,-38.086,-126.953,-61.523,-50.781,166.504
1706612757.173,-26.367,-108.398,-60.059,-39.551,-41.016
1706612757.177,-20.996,-134.766,-68.848,-48.828,9.277
1706612757.181,-26.855,-138.184,-62.988,-60.547,71.289
1706612757.185,-44.434,-130.859,-56.641,-48.340,67.383
1706612757.187,-43.945,-111.816,-61.035,-50.781,-5.859
1706612757.191,-20.996,-133.301,-60.547,-42.480,-14.648
1706612757.195,-18.555,-167.480,-63.477,-28.320,165.039
1706612757.199,-41.016,-117.188,-63.965,-61.523,41.504
1706612757.203,-54.199,-110.352,-61.035,-64.941,-40.527
1706612757.207,-50.293,-147.949,-65.430,-38.574,161.621
1706612757.211,-40.039,-141.113,-65.430,-36.133,214.844
1706612757.214,-31.738,-115.723,-66.406,-54.199,31.250
1706612757.218,-40.039,-125.000,-66.406,-64.941,-11.230
1706612757.222,-41.992,-160.645,-65.918,-55.664,91.309
1706612757.226,-53.711,-141.602,-67.383,-48.340,52.246
1706612757.230,-56.152,-114.746,-66.406,-53.223,-41.504
1706612757.281,-30.273,-140.137,-68.848,-49.316,-51.758
1706612757.285,-19.531,-159.180,-68.359,-49.316,127.441
1706612757.289,-43.457,-125.977,-68.359,-61.035,51.758
1706612757.293,-63.477,-115.723,-67.871,-60.059,-63.477
1706612757.297,-60.547,-149.902,-71.289,-51.270,48.828
1706612757.301,-48.340,-165.039,-76.660,-52.246,162.109
1706612757.305,-37.109,-149.902,-73.242,-61.035,73.242
1706612757.308,-53.711,-137.207,-73.242,-75.684,-106.445
1706612757.312,-63.965,-153.320,-73.242,-70.312,-48.828
1706612757.316,-37.598,-187.500,-76.660,-58.105,177.246
1706612757.320,-42.480,-143.555,-72.754,-66.406,73.242
1706612757.324,-46.875,-131.348,-64.453,-60.547,-28.320
1706612757.292,-42.969,-145.020,-67.871,-56.152,5.859
1706612757.296,-38.574,-128.418,-74.707,-51.758,34.668
1706612757.300,-14.648,-131.836,-73.730,-52.246,88.867
1706612757.304,-13.184,-168.457,-74.707,-46.387,376.465
1706612757.308,-61.523,-139.160,-75.195,-49.805,328.125
1706612757.312,-76.660,-106.934,-66.406,-60.547,10.742
1706612757.316,-41.016,-140.625,-72.266,-50.781,-1.953
1706612757.319,-25.879,-135.254,-72.754,-51.758,-57.129
1706612757.323,-37.598,-125.000,-60.059,-71.289,-128.418
1706612757.327,-37.598,-158.203,-64.453,-57.617,8.301
1706612757.331,-27.832,-159.668,-67.871,-54.688,125.000
1706612757.335,-34.668,-132.324,-66.895,-69.824,38.086
1706612757.351,-48.828,-125.977,-67.383,-81.055,-22.949
1706612757.355,-43.457,-148.926,-67.383,-75.195,59.570
1706612757.359,-33.203,-164.062,-72.754,-50.293,226.562
1706612757.363,-38.574,-101.562,-67.383,-55.664,34.668
1706612757.367,-45.898,-96.680,-66.895,-64.453,-110.352
1706612757.371,-43.945,-147.461,-77.148,-60.547,122.070
1706612757.375,-47.852,-147.949,-75.195,-73.730,104.980
1706612757.378,-59.082,-131.836,-65.430,-76.660,-34.668
1706612757.382,-63.965,-135.742,-61.523,-50.293,-16.602
1706612757.386,-53.223,-166.016,-64.941,-44.434,210.938
1706612757.390,-42.969,-149.902,-61.035,-63.965,225.098
1706612757.394,-51.270,-105.469,-58.105,-79.102,-88.379
1706612757.397,-57.617,-135.254,-62.500,-66.406,-115.234
1706612757.401,-51.758,-141.113,-65.430,-52.734,26.855
1706612757.405,-45.410,-122.070,-68.359,-56.641,29.785
1706612757.409,-37.598,-118.164,-70.312,-64.453,-99.609
1706612757.413,-44.922,-134.277,-71.289,-65.918,-146.973
1706612757.417,-53.711,-141.113,-70.801,-61.523,17.578
1706612757.421,-43.945,-128.906,-68.359,-47.363,125.977
1706612757.424,-27.344,-123.047,-63.965,-41.016,-24.414
1706612757.428,-28.320,-147.461,-63.477,-50.293,-22.949
1706612757.432,-31.738,-170.898,-72.266,-57.617,188.477
1706612757.436,-47.363,-133.789,-72.266,-61.035,41.504
1706612757.440,-55.664,-131.836,-64.941,-60.059,-153.320
1706612757.443,-31.250,-156.738,-67.383,-46.387,-10.742
1706612757.447,-26.855,-155.762,-69.824,-40.527,17.578
1706612757.451,-40.039,-152.832,-65.430,-62.500,0.977
1706612757.455,-42.480,-148.438,-65.918,-73.730,-38.574
1706612757.459,-56.152,-157.227,-66.406,-51.270,33.691
1706612757.463,-41.016,-154.297,-63.965,-49.316,195.801
1706612757.467,-26.367,-133.301,-60.547,-57.129,94.238
1706612757.470,-38.086,-128.418,-53.711,-56.641,-76.172
1706612757.474,-36.133,-165.039,-56.152,-46.875,49.805
1706612757.478,-50.293,-171.875,-58.105,-30.762,318.848
1706612757.482,-60.059,-110.840,-50.781,-46.875,80.566
1706612757.486,-42.480,-123.535,-51.758,-64.453,-92.773
1706612757.487,-39.062,-137.207,-58.594,-69.824,-56.641
1706612757.491,-43.945,-124.023,-64.941,-70.312,-71.777
1706612757.495,-45.410,-128.418,-65.430,-62.988,-83.496
1706612757.499,-34.180,-145.020,-61.523,-43.945,-106.934
1706612757.503,-17.578,-145.996,-59.570,-52.246,4.395
1706612757.507,-22.461,-138.672,-62.988,-76.172,125.000
1706612757.511,-33.203,-143.066,-67.871,-76.172,66.895
1706612757.514,-46.387,-135.254,-66.895,-52.734,94.727
1706612757.518,-34.180,-160.156,-68.359,-41.016,277.832
1706612757.522,-17.578,-136.719,-69.336,-62.988,155.273
1706612757.526,-17.090,-101.562,-68.359,-84.961,-87.402
1706612757.530,-14.160,-131.836,-70.801,-80.566,0.000
1706612757.532,-15.625,-132.324,-65.430,-72.266,-39.551
1706612757.536,-22.461,-122.070,-63.477,-66.406,-121.582
1706612757.540,-19.043,-133.789,-66.406,-60.547,-104.004
1706612757.544,-29.297,-138.672,-65.430,-63.965,13.184
1706612757.548,-52.734,-136.719,-62.988,-49.805,52.734
1706612757.552,-61.035,-146.973,-65.430,-44.434,62.012
1706612757.556,-43.945,-134.277,-66.406,-49.805,32.227
1706612757.559,-24.414,-150.391,-66.895,-34.180,210.938
1706612757.563,-48.828,-166.504,-65.918,-35.645,420.410
1706612757.567,-62.012,-108.398,-61.035,-60.059,83.984
1706612757.571,-42.480,-104.492,-61.035,-37.598,-60.059
1706612757.575,-39.551,-128.906,-61.523,-22.949,90.332
1706612757.577,-32.715,-112.305,-61.035,-34.668,-22.461
1706612757.581,-23.926,-104.980,-60.059,-38.086,-80.078
1706612757.585,-16.602,-123.535,-57.617,-38.086,-1.953
1706612757.589,-19.531,-136.230,-58.594,-35.156,-15.137
1706612757.593,-22.461,-125.488,-57.617,-22.949,18.555
1706612757.597,-18.066,-124.512,-58.594,-33.203,79.102
1706612757.601,-14.648,-131.348,-62.988,-41.016,182.617
1706612757.604,-15.625,-146.484,-63.477,-44.922,304.199
1706612757.608,-33.691,-121.582,-62.988,-51.270,49.316
1706612757.612,-39.062,-115.723,-66.406,-35.156,-153.809
1706612757.616,-39.062,-146.484,-71.777,-39.062,26.367
1706612757.620,-43.457,-139.160,-71.289,-55.664,90.820
1706612757.622,-42.969,-111.816,-69.336,-58.594,-91.309
1706612757.626,-35.156,-116.699,-69.824,-50.781,-109.375
1706612757.630,-36.621,-140.625,-70.312,-53.223,-28.320
1706612757.634,-51.270,-136.719,-66.895,-55.176,-70.801
1706612757.638,-45.898,-132.324,-63.965,-54.688,-110.352
1706612757.642,-41.992,-140.625,-63.477,-64.941,-28.809
1706612757.646,-30.762,-167.969,-66.895,-55.176,199.219
1706612757.649,-22.461,-151.855,-69.336,-38.086,230.957
1706612757.653,-25.879,-110.352,-61.523,-35.645,103.516
1706612757.657,-24.414,-127.930,-60.547,-45.898,35.156
1706612757.661,-30.273,-142.090,-67.871,-53.711,49.316
1706612757.665,-41.504,-134.277,-67.383,-50.781,109.863
1706612757.668,-49.805,-124.023,-67.383,-44.922,-7.324
1706612757.672,-31.250,-132.812,-69.336,-37.109,-22.949
1706612757.676,-32.227,-141.602,-68.848,-29.785,55.176
1706612757.680,-39.062,-125.488,-63.477,-35.645,-32.715
1706612757.684,-34.180,-117.188,-56.152,-44.922,-48.340
1706612757.688,-41.992,-142.578,-63.965,-61.523,86.426
1706612757.692,-37.109,-158.203,-72.754,-68.848,297.363
1706612757.695,-43.945,-117.676,-68.359,-64.453,157.227
1706612757.699,-53.711,-113.281,-68.848,-71.777,-65.918
1706612757.703,-54.688,-142.090,-70.801,-68.359,24.902
1706612757.707,-66.895,-140.625,-65.918,-56.641,90.820
1706612757.711,-53.711,-126.953,-65.430,-67.871,-38.574
1706612757.727,-30.273,-129.395,-66.895,-61.523,-63.477
1706612757.731,-35.645,-145.020,-64.941,-59.570,18.555
1706612757.735,-38.086,-141.113,-63.477,-75.684,65.918
1706612757.739,-36.133,-120.605,-59.570,-74.707,-17.090
1706612757.743,-24.414,-124.023,-56.641,-58.594,-107.422
1706612757.747,-20.020,-163.574,-62.012,-40.039,149.902
1706612757.751,-31.738,-150.391,-62.988,-54.199,353.516
1706612757.754,-28.809,-98.633,-55.664,-76.172,39.551
1706612757.758,-34.668,-117.188,-59.570,-60.059,-44.922
1706612757.762,-41.504,-151.855,-62.012,-33.203,209.473
1706612757.766,-40.527,-143.555,-61.035,-42.969,93.262
1706612757.770,-37.109,-112.305,-60.059,-66.406,-210.938
1706612757.776,-41.016,-121.582,-58.594,-64.941,-115.234
1706612757.780,-43.945,-131.836,-62.500,-58.594,-44.922
1706612757.784,-32.227,-117.676,-61.035,-55.176,-45.898
1706612757.788,-41.992,-121.094,-56.641,-48.828,-5.371
1706612757.792,-41.504,-139.648,-59.082,-51.758,-9.277
1706612757.796,-36.621,-142.090,-63.477,-70.801,104.492
1706612757.800,-52.734,-122.070,-62.500,-74.707,144.043
1706612757.803,-48.828,-114.746,-60.059,-55.664,100.586
1706612757.807,-26.367,-136.230,-60.547,-41.992,121.094
1706612757.811,-15.625,-152.344,-58.594,-31.250,343.262
1706612757.815,-14.648,-107.910,-52.246,-43.945,226.562
1706612757.819,-15.625,-99.121,-51.270,-55.176,-137.207
1706612757.817,-36.133,-132.324,-54.688,-50.293,-82.031
1706612757.821,-34.180,-128.906,-52.734,-43.457,-81.055
1706612757.825,-24.902,-119.141,-56.152,-36.621,-145.996
1706612757.829,-24.414,-129.883,-62.012,-45.898,-90.820
1706612757.833,-25.879,-144.531,-59.082,-60.547,2.441
1706612757.837,-39.062,-143.066,-55.176,-55.664,133.789
1706612757.841,-38.086,-138.184,-51.270,-42.480,139.648
1706612757.844,-35.645,-129.395,-47.363,-49.805,83.496
1706612757.848,-35.645,-147.949,-54.688,-54.199,240.723
1706612757.852,-31.250,-178.711,-62.500,-50.781,452.637
1706612757.856,-43.457,-130.859,-59.082,-52.246,170.898
1706612757.860,-47.363,-114.746,-52.246,-42.480,-136.719
1706612757.862,-24.902,-136.230,-54.688,-42.969,-118.164
1706612757.866,-22.949,-127.930,-60.547,-63.477,-147.949
1706612757.870,-32.715,-130.371,-54.199,-66.895,-140.137
1706612757.874,-42.969,-145.020,-48.828,-59.082,-52.246
1706612757.878,-51.758,-151.855,-54.199,-58.594,27.344
1706612757.882,-39.551,-144.043,-56.152,-48.340,137.695
1706612757.886,-32.715,-142.578,-56.641,-50.781,40.527
1706612757.889,-26.367,-151.367,-57.129,-62.500,-46.875
1706612757.893,-29.297,-163.574,-57.617,-46.387,166.992
1706612757.897,-38.086,-123.047,-50.781,-40.039,149.902
1706612757.901,-29.785,-100.098,-48.828,-42.969,-26.855
1706612757.905,-22.949,-144.531,-53.223,-44.922,6.348
1706612757.907,-29.297,-151.855,-53.223,-45.898,81.543
1706612757.911,-27.832,-115.723,-52.246,-40.527,-50.781
1706612757.915,-15.137,-120.117,-52.734,-40.039,-54.688
1706612757.919,-10.742,-133.301,-53.223,-39.062,68.848
1706612757.923,-23.438,-132.812,-58.105,-43.457,61.523
1706612757.927,-36.133,-138.184,-58.105,-58.105,142.578
1706612757.931,-51.758,-135.254,-57.617,-59.570,144.043
1706612757.934,-49.316,-159.180,-59.570,-41.016,170.410
1706612757.938,-29.297,-161.133,-59.570,-36.133,274.414
1706612757.942,-37.598,-107.422,-59.570,-60.059,66.895
1706612757.946,-45.410,-121.582,-59.570,-67.871,-81.543
1706612757.950,-49.316,-167.969,-56.152,-48.828,157.715
1706612757.952,-53.223,-147.461,-53.223,-42.969,168.945
1706612757.956,-41.016,-119.629,-52.246,-54.688,-102.539
1706612757.960,-19.531,-138.672,-54.199,-49.316,-56.152
1706612757.964,0.000,-140.137,-53.711,-51.270,-33.203
1706612757.968,-24.902,-129.395,-52.246,-62.988,-113.281
1706612757.972,-61.523,-139.648,-53.711,-51.758,-100.098
1706612757.976,-47.852,-148.926,-55.664,-36.621,39.551
1706612757.979,-37.109,-158.691,-64.453,-29.785,285.645
1706612757.983,-49.316,-125.977,-62.500,-54.199,151.855
1706612757.987,-45.410,-107.910,-56.641,-66.406,-154.297
1706612757.991,-41.016,-134.766,-56.641,-47.852,-14.648
1706612757.995,-41.016,-132.324,-59.082,-44.922,130.371
1706612757.998,-29.297,-117.188,-60.059,-52.246,-34.180
1706612758.002,-20.020,-125.000,-57.129,-55.176,-24.902
1706612758.006,-33.691,-150.391,-56.641,-54.199,146.484
1706612758.010,-38.086,-137.695,-53.711,-46.387,142.090
1706612758.014,-31.250,-119.629,-49.805,-42.969,39.062
1706612758.018,-42.480,-141.602,-48.828,-49.805,5.859
1706612758.022,-42.480,-164.551,-54.688,-50.781,191.406
1706612758.025,-48.828,-145.020,-57.617,-56.152,278.809
1706612758.029,-65.918,-112.305,-51.758,-59.082,100.586
1706612758.033,-50.293,-126.953,-48.340,-53.223,32.715
1706612758.037,-28.320,-141.602,-48.828,-46.875,42.480
1706612758.041,-30.762,-124.023,-55.664,-50.781,47.852
1706612758.042,-24.414,-110.352,-55.664,-53.711,-118.164
1706612758.046,-22.461,-131.836,-57.617,-48.828,-136.230
1706612758.050,-39.551,-133.789,-59.082,-53.223,-85.449
1706612758.054,-38.086,-125.977,-61.523,-56.641,-57.129
1706612758.058,-38.086,-138.672,-65.918,-67.871,-19.531
1706612758.062,-43.457,-142.090,-59.570,-66.895,-13.184
1706612758.066,-34.668,-165.039,-58.594,-43.945,283.203
1706612758.069,-44.922,-140.137,-52.734,-47.852,290.039
1706612758.073,-45.410,-104.004,-45.410,-50.781,-84.961
1706612758.077,-40.527,-131.836,-51.758,-45.898,-71.289
1706612758.081,-46.875,-133.789,-58.594,-59.082,2.441
1706612758.085,-36.621,-118.164,-59.082,-51.758,-11.230
1706612758.087,-43.945,-125.977,-53.711,-33.203,-54.199
1706612758.091,-50.781,-138.672,-54.199,-34.180,-1.953
1706612758.095,-42.480,-126.465,-57.129,-51.270,47.363
1706612758.099,-43.945,-110.840,-53.711,-69.824,-33.691
1706612758.103,-49.316,-119.141,-50.781,-71.289,-75.195
1706612758.107,-41.504,-146.484,-55.176,-48.340,136.719
1706612758.111,-34.668,-133.789,-56.641,-41.992,283.691
1706612758.114,-26.367,-111.328,-55.664,-55.176,103.027
1706612758.118,-26.367,-117.676,-61.523,-66.406,-3.906
1706612758.122,-20.996,-152.344,-68.848,-58.594,90.332
1706612758.126,-27.344,-161.133,-72.754,-51.758,234.375
1706612758.130,-55.176,-103.516,-65.918,-66.406,2.930
1706612758.147,-47.852,-115.234,-60.547,-62.012,-132.812
1706612758.151,-54.199,-135.742,-57.617,-59.082,-70.312
1706612758.155,-59.082,-125.977,-58.105,-54.199,-63.477
1706612758.159,-47.363,-118.652,-54.688,-47.363,-93.750
1706612758.163,-38.574,-122.559,-52.734,-42.480,-12.207
1706612758.167,-33.203,-144.043,-56.641,-41.992,142.090
1706612758.171,-17.578,-129.883,-49.805,-56.152,67.383
1706612758.174,-23.438,-114.746,-53.223,-63.965,-47.852
1706612758.178,-33.203,-141.113,-59.082,-48.828,47.363
1706612758.182,-14.648,-169.922,-57.129,-39.062,339.844
1706612758.186,-20.020,-127.930,-58.105,-55.664,207.031
1706612758.190,-31.738,-115.234,-57.129,-62.500,-102.051
1706612758.192,-43.945,-139.648,-52.246,-62.500,-34.668
1706612758.196,-48.828,-129.395,-46.875,-54.199,-18.066
1706612758.200,-35.645,-111.328,-47.363,-41.016,-35.645
1706612758.204,-16.602,-118.164,-51.270,-28.809,-12.695
1706612758.208,-16.602,-131.836,-50.293,-40.039,18.066
1706612758.212,-33.691,-129.395,-50.293,-51.758,102.539
1706612758.216,-41.992,-120.117,-52.246,-48.340,136.230
1706612758.219,-43.457,-116.211,-57.129,-54.199,70.312
1706612758.223,-35.156,-150.391,-62.012,-41.992,231.934
1706612758.227,-13.672,-156.738,-62.988,-48.828,410.156
1706612758.231,-30.273,-107.910,-59.570,-79.102,-1.953
1706612758.235,-51.758,-115.234,-52.734,-61.035,8.789
1706612758.237,-55.664,-122.559,-55.664,-38.574,149.414
1706612758.241,-38.086,-105.469,-57.129,-46.875,9.766
1706612758.245,-20.020,-108.887,-54.199,-49.316,-47.852
1706612758.249,-29.297,-127.441,-56.641,-51.270,-16.113
1706612758.253,-38.574,-134.277,-59.082,-52.246,27.832
1706612758.257,-44.434,-136.719,-59.570,-44.922,-28.320
1706612758.261,-38.574,-129.395,-53.711,-42.969,-51.270
1706612758.264,-29.785,-132.324,-50.293,-39.551,-40.527
1706612758.268,-43.457,-150.879,-56.152,-50.293,103.516
1706612758.272,-47.363,-117.188,-52.734,-62.012,80.078
1706612758.276,-32.715,-111.816,-54.199,-53.711,-104.492
1706612758.280,-38.086,-136.230,-62.012,-59.082,-12.207
1706612758.283,-30.762,-144.531,-61.523,-77.148,-24.902
1706612758.287,-12.695,-141.602,-62.012,-90.332,-39.062
1706612758.291,-19.531,-127.930,-58.594,-88.867,-11.719
1706612758.295,-25.391,-153.809,-61.035,-68.359,53.711
1706612758.299,-10.254,-148.926,-68.848,-42.480,164.062
1706612758.303,-13.672,-135.254,-67.383,-30.273,158.691
1706612758.307,-36.621,-144.531,-54.688,-43.945,126.953
1706612758.310,-41.992,-163.086,-52.734,-45.410,208.008
1706612758.314,-32.227,-159.668,-57.129,-21.484,369.141
1706612758.318,-21.484,-112.305,-52.734,-20.996,136.719
1706612758.322,-8.789,-128.906,-47.852,-24.414,-68.359
1706612758.326,-14.160,-147.949,-47.363,-18.555,10.742
1706612758.327,-17.090,-131.836,-51.270,-20.508,-41.992
1706612758.331,-17.578,-127.930,-43.945,-6.348,-104.492
1706612758.335,-9.277,-145.508,-44.922,6.348,0.000
1706612758.339,3.906,-154.297,-54.688,3.906,110.840
1706612758.343,-17.578,-141.113,-51.270,-2.930,100.586
1706612758.347,-36.621,-147.949,-46.875,-6.348,-21.973
1706612758.351,-41.016,-156.738,-51.270,1.465,54.688
1706612758.354,-31.250,-177.734,-53.711,6.836,360.352
1706612758.358,-19.531,-150.391,-48.828,-0.488,301.270
1706612758.362,-17.578,-113.770,-46.387,-18.066,-40.527
1706612758.366,-16.602,-141.602,-45.898,-19.043,-104.004
1706612758.370,-37.109,-142.090,-43.457,-18.066,-58.594
1706612758.372,-9.277,-126.953,-45.410,-16.602,-79.102
1706612758.376,2.930,-132.812,-45.898,-7.812,-56.152
1706612758.380,-38.574,-148.438,-47.852,-18.066,19.531
1706612758.384,-45.898,-139.160,-54.688,-33.691,-66.406
1706612758.388,-35.156,-142.578,-54.688,-28.809,-43.457
1706612758.392,-30.273,-153.809,-51.270,-28.809,47.852
1706612758.396,-18.555,-170.898,-52.734,-16.113,185.547
1706612758.399,-24.902,-167.480,-56.641,-21.973,312.988
1706612758.403,-42.969,-127.930,-53.223,-40.527,89.355
1706612758.407,-28.809,-131.348,-50.293,-20.020,-3.906
1706612758.411,-12.695,-159.180,-52.246,-2.930,166.016
1706612758.415,-22.461,-137.207,-50.293,-17.578,155.273
1706612758.417,-34.180,-105.469,-50.293,-42.480,-130.371
1706612758.421,-34.668,-131.836,-56.152,-49.805,-136.719
1706612758.425,-46.875,-141.113,-60.547,-37.598,-46.387
1706612758.429,-50.293,-128.906,-62.012,-33.203,-22.949
1706612758.433,-38.086,-130.859,-63.965,-41.016,-63.477
1706612758.437,-30.762,-150.879,-64.453,-47.852,29.785
1706612758.441,-33.691,-155.273,-65.430,-56.152,220.215
1706612758.444,-44.922,-125.000,-64.941,-54.688,86.914
1706612758.448,-35.156,-120.117,-66.895,-53.711,-7.324
1706612758.452,-26.855,-140.625,-68.359,-45.898,93.750
1706612758.456,-28.809,-137.207,-65.918,-43.945,94.238
1706612758.460,-48.828,-104.980,-66.406,-69.336,-114.258
1706612758.462,-58.594,-111.328,-63.965,-61.035,-124.023
1706612758.466,-52.734,-137.207,-57.617,-42.969,-28.809
1706612758.470,-43.457,-128.418,-57.617,-44.434,-1.953
1706612758.474,-32.715,-115.723,-58.105,-46.387,-67.871
1706612758.478,-37.109,-125.977,-54.199,-50.293,-96.191
1706612758.482,-42.969,-139.160,-60.059,-56.152,25.879
1706612758.486,-43.457,-126.465,-60.059,-50.781,98.633
1706612758.489,-37.598,-115.234,-54.688,-51.758,-48.828
1706612758.493,-22.949,-116.699,-57.617,-56.152,-83.008
1706612758.497,-11.230,-149.902,-65.430,-49.805,121.582
1706612758.501,-23.926,-145.020,-63.965,-43.945,290.039
1706612758.505,-43.945,-88.379,-56.641,-53.223,88.379
1706612758.522,-49.316,-104.980,-53.711,-50.293,-103.516
1706612758.526,-36.133,-124.512,-54.688,-44.922,8.789
1706612758.530,-34.180,-104.004,-55.664,-70.312,0.000
1706612758.534,-49.805,-102.539,-53.711,-80.566,-100.098
1706612758.538,-49.316,-125.977,-55.176,-56.152,35.156
1706612758.542,-47.852,-137.695,-61.523,-45.410,128.418
1706612758.546,-44.434,-120.605,-64.453,-59.570,101.074
1706612758.549,-41.016,-100.586,-60.059,-76.172,-2.930
1706612758.553,-56.641,-125.488,-60.547,-77.148,-94.238
1706612758.557,-56.641,-145.508,-61.523,-65.430,101.562
1706612758.561,-48.828,-108.398,-55.664,-63.965,68.848
1706612758.565,-33.203,-109.863,-52.734,-59.570,-82.031
1706612758.566,-26.367,-141.113,-56.152,-58.105,41.016
1706612758.570,-31.738,-136.719,-55.176,-66.406,57.129
1706612758.574,-53.223,-115.723,-50.293,-67.871,-89.844
1706612758.578,-49.805,-119.141,-50.781,-51.270,-53.223
1706612758.582,-40.039,-135.742,-54.688,-48.340,86.426
1706612758.586,-43.945,-141.113,-55.664,-68.848,99.121
1706612758.590,-41.016,-132.324,-52.246,-83.984,82.520
1706612758.593,-46.387,-119.629,-44.434,-71.777,27.344
1706612758.597,-32.227,-156.250,-51.270,-52.246,70.801
1706612758.601,-32.715,-172.852,-61.523,-58.594,324.707
1706612758.605,-46.387,-112.793,-56.152,-79.102,91.309
1706612758.609,-50.293,-123.535,-57.129,-79.590,-84.961
1706612758.611,-59.082,-144.531,-60.059,-71.289,33.691
1706612758.615,-57.129,-134.766,-61.523,-69.336,-7.324
1706612758.619,-22.461,-135.254,-59.082,-73.730,-51.758
1706612758.623,-10.742,-142.090,-61.035,-70.801,75.684
1706612758.627,-59.082,-147.949,-62.988,-70.801,143.555
1706612758.631,-72.754,-144.043,-58.105,-71.777,94.238
1706612758.635,-45.410,-134.766,-56.641,-59.570,50.293
1706612758.638,-29.785,-140.137,-55.176,-61.523,34.180
1706612758.642,-44.434,-151.367,-53.223,-77.637,147.949
1706612758.646,-70.312,-117.676,-55.664,-99.121,17.090
1706612758.650,-71.777,-110.352,-54.199,-99.121,-205.566
1706612758.654,-65.430,-138.184,-53.223,-74.707,-125.000
1706612758.656,-51.270,-135.742,-53.711,-69.336,-9.766
1706612758.660,-42.480,-124.512,-47.852,-88.867,-101.074
1706612758.664,-58.105,-136.719,-50.781,-106.934,-133.301
1706612758.668,-62.012,-144.531,-54.688,-100.098,-42.480
1706612758.672,-48.828,-137.695,-50.293,-83.008,-20.508
1706612758.676,-35.156,-136.230,-52.246,-82.031,63.477
1706612758.680,-30.273,-131.348,-52.246,-83.984,113.770
1706612758.683,-27.344,-152.832,-55.176,-81.055,82.031
1706612758.687,-35.645,-173.828,-60.059,-73.730,287.598
1706612758.691,-43.457,-125.000,-57.129,-77.148,145.508
1706612758.695,-44.434,-111.328,-54.199,-70.801,-173.828
1706612758.699,-61.523,-140.625,-56.641,-74.219,-153.320
1706612758.702,-63.965,-131.348,-52.246,-91.309,-145.996
1706612758.706,-65.430,-121.094,-46.387,-78.613,-49.316
1706612758.710,-62.500,-137.695,-49.805,-60.059,-6.348
1706612758.714,-50.293,-140.625,-53.711,-53.711,-31.250
1706612758.718,-33.691,-123.535,-51.758,-58.594,-3.906
1706612758.722,-24.414,-134.277,-51.758,-65.918,-9.277
1706612758.726,-41.016,-136.230,-54.688,-71.289,29.297
1706612758.729,-48.340,-158.203,-61.035,-46.875,327.148
1706612758.733,-36.621,-134.766,-56.152,-39.551,237.305
1706612758.737,-39.062,-106.934,-53.223,-56.641,-78.613
1706612758.741,-46.875,-140.137,-56.641,-64.453,5.859
1706612758.745,-43.945,-139.648,-60.547,-76.172,22.949
1706612758.747,-40.039,-119.141,-67.871,-80.078,-120.117
1706612758.751,-41.992,-117.188,-63.965,-65.918,-160.645
1706612758.755,-44.434,-132.324,-61.523,-61.523,-13.184
1706612758.759,-48.828,-128.906,-65.430,-75.195,9.277
1706612758.763,-41.504,-125.977,-64.941,-80.566,-28.809
1706612758.767,-37.598,-143.066,-62.500,-66.895,-33.203
1706612758.771,-35.645,-157.227,-63.965,-45.898,230.469
1706612758.774,-30.273,-145.996,-67.871,-40.527,312.012
1706612758.778,-39.062,-116.211,-58.105,-45.410,9.277
1706612758.782,-49.805,-116.211,-54.199,-59.570,-27.344
1706612758.786,-47.852,-144.531,-62.012,-52.246,215.820
1706612758.790,-37.598,-137.207,-58.594,-44.434,257.324
1706612758.792,-41.504,-100.586,-53.711,-59.082,-47.363
1706612758.796,-46.875,-122.559,-52.734,-57.617,-85.938
1706612758.800,-41.504,-126.953,-50.781,-57.129,-100.586
1706612758.804,-41.016,-104.980,-48.340,-63.477,-81.543
1706612758.808,-52.246,-111.816,-47.363,-53.223,3.418
1706612758.812,-56.641,-132.324,-52.246,-44.434,100.586
1706612758.816,-37.598,-162.598,-58.105,-48.340,400.391
1706612758.819,-41.504,-132.812,-56.641,-59.082,277.344
1706612758.823,-48.340,-98.633,-49.805,-62.012,-127.930
1706612758.827,-38.086,-128.418,-53.223,-49.316,-88.379
1706612758.831,-34.668,-132.812,-55.176,-48.828,14.160
1706612758.835,-35.645,-128.418,-57.617,-63.477,-23.926
1706612758.838,-39.062,-127.441,-58.594,-70.312,-119.629
1706612758.842,-31.250,-146.484,-65.430,-68.359,-5.859
1706612758.846,-38.574,-137.695,-68.359,-68.359,69.824
1706612758.850,-64.453,-112.793,-57.617,-65.430,43.457
1706612758.854,-58.594,-128.906,-62.988,-73.730,-28.320
1706612758.858,-45.410,-158.691,-65.430,-77.637,50.293
1706612758.862,-60.547,-146.973,-62.988,-69.336,195.801
1706612758.865,-74.219,-114.258,-62.988,-64.453,21.484
1706612758.869,-57.129,-121.582,-62.988,-62.012,-13.672
1706612758.873,-28.809,-151.855,-62.988,-50.781,238.770
1706612758.877,-43.945,-136.719,-66.406,-59.082,283.691
1706612758.881,-67.383,-98.633,-66.895,-76.172,-72.266
1706612758.898,-62.012,-120.117,-60.547,-60.547,-89.844
1706612758.902,-54.199,-133.301,-60.059,-52.246,38.574
1706612758.906,-47.852,-135.742,-60.059,-62.988,24.414
1706612758.910,-43.945,-135.254,-63.965,-73.730,90.820
1706612758.914,-48.340,-146.484,-65.430,-79.102,-5.371
1706612758.918,-56.641,-170.898,-59.570,-57.617,179.688
1706612758.922,-60.059,-140.625,-57.617,-49.805,295.410
1706612758.925,-55.664,-118.164,-59.082,-72.754,-1.953
1706612758.929,-49.316,-148.438,-63.965,-74.219,-69.336
1706612758.933,-45.410,-157.715,-65.430,-62.500,63.965
1706612758.937,-51.270,-122.559,-63.477,-59.082,-57.129
1706612758.941,-45.410,-128.906,-59.570,-49.316,-106.934
1706612758.942,-28.320,-154.297,-66.406,-50.781,45.898
1706612758.946,-32.715,-149.414,-72.266,-66.406,51.758
1706612758.950,-54.688,-132.812,-61.035,-79.590,-88.867
1706612758.954,-61.523,-134.766,-59.570,-69.336,-90.820
1706612758.958,-62.500,-144.531,-59.570,-54.688,-0.488
1706612758.962,-51.758,-146.973,-61.523,-62.012,16.602
1706612758.966,-30.273,-139.648,-66.406,-78.613,15.625
1706612758.969,-54.199,-132.324,-63.477,-85.938,13.184
1706612758.973,-69.336,-152.832,-63.477,-67.383,146.973
1706612758.977,-60.059,-177.246,-67.383,-51.758,349.609
1706612758.981,-50.293,-127.441,-60.059,-63.477,133.789
1706612758.985,-39.551,-106.445,-50.781,-73.730,-143.555
1706612758.987,-49.316,-126.953,-49.316,-86.914,-54.199
1706612758.991,-48.828,-119.629,-53.711,-83.008,-65.918
1706612758.995,-34.180,-118.164,-55.176,-70.801,-106.445
1706612758.999,-17.090,-128.906,-53.223,-76.172,-27.344
1706612759.003,-6.348,-129.883,-57.129,-83.008,92.773
1706612759.007,-14.160,-136.719,-62.012,-101.562,43.945
1706612759.011,-31.738,-144.531,-59.082,-110.840,-35.645
1706612759.014,-41.992,-139.160,-60.059,-94.727,-11.230
1706612759.018,-30.762,-166.504,-62.500,-69.336,226.562
1706612759.022,-24.414,-136.230,-61.523,-72.266,240.234
1706612759.026,-41.504,-99.121,-65.918,-79.102,-32.227
1706612759.030,-49.805,-133.301,-65.430,-65.430,-24.414
1706612759.032,-57.617,-137.695,-62.500,-68.359,49.805
1706612759.036,-53.223,-122.559,-64.453,-65.918,-16.113
1706612759.040,-41.992,-129.395,-62.500,-59.082,-92.285
1706612759.044,-38.086,-145.020,-64.453,-70.312,-88.379
1706612759.048,-22.461,-139.648,-68.848,-83.008,-37.109
1706612759.052,-30.273,-138.672,-66.895,-64.453,8.789
1706612759.056,-58.594,-128.906,-62.500,-47.852,19.043
1706612759.059,-41.992,-152.832,-64.941,-40.039,189.453
1706612759.063,-48.828,-166.504,-68.848,-51.758,245.117
1706612759.067,-68.848,-124.023,-65.430,-72.754,72.754
1706612759.071,-65.918,-124.512,-61.035,-53.223,-48.340
1706612759.075,-51.758,-155.273,-63.965,-41.992,79.102
1706612759.077,-32.227,-136.230,-62.500,-43.945,148.438
1706612759.081,-25.391,-109.863,-62.012,-51.270,-80.078
1706612759.085,-32.715,-129.395,-60.547,-62.500,-44.434
1706612759.089,-54.688,-126.953,-58.594,-49.805,-30.762
1706612759.093,-50.781,-119.141,-58.594,-48.828,-148.926
1706612759.097,-20.996,-131.348,-59.082,-76.660,-30.762
1706612759.101,-27.344,-140.625,-64.453,-81.055,9.277
1706612759.104,-41.992,-143.555,-62.988,-67.383,120.117
1706612759.108,-59.082,-109.863,-56.641,-71.289,70.801
1706612759.112,-68.359,-99.609,-62.012,-64.453,-63.965
1706612759.116,-54.199,-132.812,-66.406,-53.223,-11.230
1706612759.120,-45.410,-138.184,-61.523,-64.941,-29.785
1706612759.122,-42.480,-124.512,-63.965,-73.242,-18.066
1706612759.126,-49.316,-117.676,-62.500,-72.266,-105.469
1706612759.130,-53.711,-143.555,-59.570,-59.082,73.242
1706612759.134,-50.781,-143.555,-60.547,-50.781,205.566
1706612759.138,-45.898,-120.117,-53.711,-54.199,33.691
1706612759.142,-44.434,-133.789,-56.641,-59.570,22.949
1706612759.146,-44.922,-160.156,-64.453,-49.805,301.270
1706612759.149,-55.176,-148.926,-62.012,-41.992,321.289
1706612759.153,-44.434,-114.746,-61.035,-58.105,76.172
1706612759.157,-28.809,-120.605,-63.965,-62.012,26.855
1706612759.161,-42.969,-136.719,-63.477,-63.477,91.309
1706612759.165,-54.688,-121.582,-67.871,-60.547,64.453
1706612759.168,-50.293,-102.539,-70.801,-45.410,-100.586
1706612759.172,-24.902,-125.000,-67.383,-35.645,-108.398
1706612759.176,-42.969,-133.301,-65.430,-37.109,-59.082
1706612759.180,-59.570,-110.840,-65.918,-43.945,-21.973
1706612759.184,-49.805,-109.375,-64.941,-44.434,-47.852
1706612759.188,-43.457,-128.418,-67.383,-51.758,38.574
1706612759.192,-40.527,-158.691,-75.684,-46.875,321.289
1706612759.195,-49.805,-132.812,-77.148,-64.941,183.594
1706612759.199,-50.293,-96.191,-68.848,-80.566,-102.051
1706612759.203,-56.641,-125.977,-61.523,-68.848,-11.719
1706612759.207,-59.082,-131.836,-63.965,-62.012,12.207
1706612759.211,-55.664,-116.699,-67.383,-41.016,-1.465
1706612759.211,-43.945,-125.977,-62.988,-40.039,19.043
1706612759.215,-49.316,-145.996,-59.082,-47.363,-83.008
1706612759.219,-45.898,-127.930,-63.965,-59.082,-137.695
1706612759.223,-19.043,-111.816,-61.523,-59.570,-57.129
1706612759.227,-20.996,-131.348,-57.617,-61.523,-48.828
1706612759.231,-30.762,-163.086,-62.988,-52.246,178.223
1706612759.235,-47.363,-159.180,-64.453,-46.875,324.707
1706612759.238,-85.449,-121.094,-57.617,-62.500,37.109
1706612759.242,-76.660,-136.230,-55.664,-52.246,-52.246
1706612759.246,-55.664,-164.062,-62.012,-44.434,145.996
1706612759.250,-59.082,-149.414,-65.918,-57.617,158.203
1706612759.254,-57.129,-108.398,-57.617,-68.359,8.789
1706612759.272,-61.035,-126.953,-53.223,-65.918,-99.121
1706612759.276,-74.219,-139.648,-55.176,-50.781,-123.535
1706612759.280,-47.852,-113.281,-58.105,-38.086,-97.656
1706612759.284,-12.207,-106.445,-64.941,-44.922,-118.164
1706612759.288,-19.043,-125.488,-60.547,-42.969,-110.840
1706612759.292,-41.992,-138.672,-56.641,-42.969,50.293
1706612759.296,-55.664,-123.047,-56.152,-36.133,68.359
1706612759.299,-35.645,-123.047,-56.152,-31.738,-32.715
1706612759.303,-20.020,-137.695,-58.594,-33.203,18.555
1706612759.307,-33.203,-148.926,-59.082,-22.461,278.809
1706612759.311,-46.875,-110.352,-55.176,-36.621,209.961
1706612759.315,-46.387,-86.426,-48.828,-28.320,-64.941
1706612759.317,-38.574,-110.840,-45.410,-8.301,42.969
1706612759.321,-36.133,-115.723,-46.387,-22.461,87.891
1706612759.325,-24.414,-115.234,-52.734,-45.898,-5.371
1706612759.329,-32.227,-125.000,-60.059,-59.570,-57.129
1706612759.333,-61.035,-137.695,-61.035,-50.293,-17.578
1706612759.337,-65.918,-138.672,-58.105,-29.785,115.723
1706612759.341,-54.688,-127.441,-57.129,-22.461,146.484
1706612759.344,-49.316,-118.164,-61.523,-41.992,12.207
1706612759.348,-45.410,-154.297,-71.777,-42.969,83.008
1706612759.352,-56.152,-176.270,-79.590,-22.949,446.777
1706612759.356,-57.617,-104.492,-77.637,-32.715,363.281
1706612759.360,-25.879,-91.309,-71.777,-38.574,40.527
1706612759.361,-21.484,-123.535,-69.824,-38.086,25.391
1706612759.365,-41.504,-116.699,-72.266,-53.711,-5.859
1706612759.369,-56.641,-118.164,-71.777,-53.711,-100.098
1706612759.373,-61.035,-127.441,-71.777,-40.039,-60.547
1706612759.377,-31.738,-130.371,-70.801,-28.320,16.113
1706612759.381,-26.855,-126.953,-63.477,-24.414,85.938
1706612759.385,-58.594,-120.605,-64.941,-31.738,146.484
1706612759.388,-78.125,-130.371,-64.941,-37.598,48.340
1706612759.392,-79.102,-144.043,-61.523,-29.785,202.637
1706612759.396,-57.129,-105.957,-62.988,-35.645,240.723
1706612759.400,-19.531,-95.215,-61.035,-43.945,-15.625
1706612759.404,-4.883,-141.602,-64.941,-40.039,16.113
1706612759.407,-33.203,-136.719,-67.383,-46.387,41.016
1706612759.411,-72.754,-107.910,-60.547,-46.875,-118.164
1706612759.415,-68.359,-128.418,-59.082,-35.156,-158.203
1706612759.419,-43.457,-135.742,-65.918,-26.367,-84.961
1706612759.423,-50.781,-120.117,-70.312,-52.734,-83.496
1706612759.427,-46.387,-126.465,-67.871,-60.547,-55.664
1706612759.431,-38.086,-123.047,-63.965,-45.410,-16.113
1706612759.434,-42.969,-140.625,-65.430,-47.852,103.516
1706612759.438,-36.133,-141.602,-67.871,-46.387,317.383
1706612759.442,-26.855,-90.332,-57.617,-59.570,111.328
1706612759.446,-9.277,-99.609,-50.781,-61.523,-62.500
1706612759.450,-17.578,-117.188,-59.570,-56.641,37.598
1706612759.453,-36.621,-112.793,-61.523,-51.758,-22.949
1706612759.457,-39.062,-127.441,-55.664,-41.016,-112.305
1706612759.461,-47.852,-127.441,-53.223,-49.805,-5.859
1706612759.465,-55.176,-142.578,-57.617,-55.664,171.875
1706612759.469,-64.941,-121.582,-59.570,-54.688,256.348
1706612759.473,-55.664,-102.051,-60.547,-59.570,147.461
1706612759.477,-35.645,-127.930,-60.059,-53.223,132.812
1706612759.480,-39.062,-143.066,-63.965,-54.199,254.883
1706612759.484,-53.223,-116.699,-64.453,-64.941,68.848
1706612759.488,-35.156,-100.586,-50.781,-44.434,-145.996
1706612759.492,-28.809,-123.047,-57.617,-43.945,-31.250
1706612759.496,-43.457,-119.629,-72.266,-64.941,-15.137
1706612759.497,-34.180,-100.586,-69.336,-64.941,-140.625
1706612759.501,-17.090,-101.562,-70.312,-63.965,-138.672
1706612759.505,-4.395,-107.910,-71.289,-45.410,-75.195
1706612759.509,-8.789,-100.098,-65.430,-22.461,-103.027
1706612759.513,-7.324,-95.215,-62.012,-15.625,-113.281
1706612759.517,9.766,-85.449,-62.012,-28.320,-10.254
1706612759.521,12.695,-101.074,-64.453,-42.480,193.848
1706612759.524,-5.371,-102.539,-63.477,-31.250,299.316
1706612759.528,-26.367,-71.777,-59.570,-14.648,168.945
1706612759.532,-6.348,-87.402,-57.617,-13.184,22.949
1706612759.536,0.977,-104.492,-58.105,-26.367,-9.766
1706612759.540,-23.926,-91.309,-58.594,-35.645,-76.172
1706612759.542,-5.371,-86.426,-57.129,-37.598,-247.070
1706612759.546,-6.836,-105.469,-61.523,-41.992,-128.906
1706612759.550,-25.391,-114.746,-62.988,-39.551,-47.852
1706612759.554,-0.977,-106.445,-62.500,-31.738,-118.652
1706612759.558,3.906,-109.375,-65.430,-64.453,-113.281
1706612759.562,-17.578,-123.535,-62.988,-58.594,55.664
1706612759.566,-29.297,-130.371,-56.152,-27.832,244.141
1706612759.569,-33.203,-101.562,-53.711,-20.996,230.957
1706612759.573,-20.996,-80.078,-53.223,-33.691,47.852
1706612759.577,-22.461,-114.746,-53.223,-49.805,-6.836
1706612759.581,-19.043,-124.512,-61.035,-43.945,67.383
1706612759.585,-18.066,-89.844,-66.895,-38.574,-25.879
1706612759.587,-25.879,-95.703,-64.941,-28.809,-52.734
1706612759.591,-18.066,-113.281,-58.105,-20.020,-14.648
1706612759.595,-20.508,-105.469,-54.199,-30.273,-13.672
1706612759.599,-22.461,-101.562,-54.199,-43.457,-99.609
1706612759.603,-11.719,-113.281,-55.176,-47.852,-133.301
1706612759.607,-26.367,-140.137,-58.594,-33.691,96.680
1706612759.611,-31.250,-129.883,-63.477,-29.785,195.801
1706612759.614,-20.020,-110.840,-62.988,-42.480,-41.504
1706612759.618,-20.996,-119.141,-60.547,-46.387,-44.434
1706612759.622,-29.297,-145.508,-63.477,-36.133,216.309
1706612759.626,-32.715,-147.949,-62.500,-25.879,341.309
1706612759.630,-36.133,-88.379,-57.129,-41.016,88.867
1706612759.647,-32.227,-98.145,-57.617,-53.711,-27.832
1706612759.651,-22.461,-124.023,-61.523,-65.430,38.086
1706612759.655,-36.621,-116.211,-59.570,-61.035,12.695
1706612759.659,-42.969,-122.559,-63.477,-46.387,-62.012
1706612759.663,-36.133,-142.578,-67.383,-31.250,-39.062
1706612759.667,-30.762,-151.367,-62.012,-33.691,70.801
1706612759.671,-19.043,-130.859,-62.988,-61.035,87.891
1706612759.674,-50.781,-113.770,-63.965,-68.359,19.043
1706612759.678,-57.129,-135.742,-63.477,-54.688,-30.273
1706612759.682,-45.898,-145.508,-69.824,-51.270,161.621
1706612759.686,-36.621,-107.422,-66.895,-60.547,120.605
1706612759.690,-34.668,-107.422,-61.035,-60.547,49.316
1706612759.691,-48.340,-128.418,-63.477,-51.758,178.711
1706612759.695,-53.711,-119.629,-63.965,-39.062,121.582
1706612759.699,-39.551,-93.750,-61.035,-40.527,-59.082
1706612759.703,-22.461,-102.051,-60.547,-52.734,-19.043
1706612759.707,-40.527,-122.559,-65.918,-58.105,50.781
1706612759.711,-55.664,-127.930,-63.477,-64.941,169.434
1706612759.715,-46.875,-118.652,-60.059,-59.082,194.336
1706612759.718,-36.133,-112.305,-65.430,-54.199,-43.457
1706612759.722,-34.668,-143.066,-66.406,-49.316,69.336
1706612759.726,-53.223,-166.992,-67.383,-48.340,442.383
1706612759.730,-56.152,-105.469,-60.059,-66.406,238.770
1706612759.734,-43.945,-83.496,-51.758,-49.316,-98.145
1706612759.737,-25.391,-109.375,-57.129,-44.922,-67.871
1706612759.741,-23.438,-106.445,-58.105,-55.664,26.367
1706612759.745,-19.531,-102.051,-54.688,-55.176,-56.152
1706612759.749,-10.742,-111.328,-58.594,-72.754,-126.953
1706612759.753,-21.484,-114.258,-62.988,-79.102,30.273
1706612759.757,1.953,-103.516,-63.477,-76.172,49.805
1706612759.761,29.785,-96.191,-66.895,-83.496,-14.160
1706612759.764,6.836,-103.027,-68.359,-80.566,28.809
1706612759.768,-18.555,-128.906,-66.406,-70.801,124.023
1706612759.772,-45.898,-101.562,-57.617,-70.801,106.934
1706612759.776,-54.688,-88.867,-51.270,-57.617,-34.180
1706612759.780,-37.109,-119.629,-55.176,-50.781,-11.719
1706612759.786,-37.598,-124.023,-57.617,-58.105,38.574
1706612759.790,-33.691,-115.723,-58.105,-70.801,-72.266
1706612759.794,-45.410,-128.906,-62.012,-67.383,-139.160
1706612759.798,-47.363,-145.508,-62.500,-48.340,37.109
1706612759.802,-24.414,-133.301,-59.570,-35.156,111.816
1706612759.806,-35.156,-129.883,-60.547,-48.828,71.777
1706612759.810,-46.875,-127.441,-59.082,-59.570,52.246
1706612759.813,-46.387,-147.461,-54.688,-29.297,139.648
1706612759.817,-45.410,-164.551,-53.711,-18.066,413.574
1706612759.821,-33.203,-109.863,-52.734,-29.297,247.559
1706612759.825,-30.273,-104.492,-54.688,-44.922,-50.781
1706612759.829,-40.039,-162.598,-63.965,-56.641,101.562
1706612759.826,-53.223,-157.227,-65.430,-48.828,308.594
1706612759.830,-56.641,-102.051,-58.594,-46.387,84.961
1706612759.834,-40.039,-125.000,-59.082,-43.945,-47.363
1706612759.838,-25.879,-138.672,-59.082,-50.781,-25.391
1706612759.842,-19.531,-123.047,-51.758,-55.176,-102.539
1706612759.846,-15.137,-125.000,-53.223,-36.133,-115.723
1706612759.850,-39.062,-122.070,-55.664,-37.598,-11.230
1706612759.853,-43.457,-144.043,-64.453,-38.086,236.328
1706612759.857,-35.645,-154.785,-68.848,-37.598,473.145
1706612759.861,-47.363,-131.836,-65.430,-55.176,372.070
1706612759.865,-34.668,-111.816,-63.965,-57.129,132.324
1706612759.869,-15.137,-107.910,-60.059,-45.410,30.762
1706612759.872,-37.598,-106.445,-58.594,-46.875,-75.195
1706612759.876,-45.898,-115.723,-55.176,-46.387,-84.961
1706612759.880,-39.551,-134.277,-55.664,-51.758,-34.668
1706612759.884,-38.086,-126.465,-54.688,-48.340,-54.199
1706612759.888,-31.738,-118.652,-49.805,-32.227,-113.770
1706612759.892,-21.484,-123.535,-58.594,-27.344,-13.672
1706612759.896,-14.648,-142.090,-65.430,-23.438,254.883
1706612759.899,-9.766,-138.672,-60.547,-33.203,273.926
1706612759.903,-10.742,-104.980,-57.617,-42.480,-27.832
1706612759.907,-7.812,-113.770,-58.594,-38.574,-63.965
1706612759.911,1.465,-117.676,-54.199,-32.715,130.371
1706612759.915,-0.977,-103.516,-52.246,-34.180,120.605
1706612759.931,-12.695,-99.121,-54.199,-44.434,-38.574
1706612759.935,-19.531,-107.910,-64.941,-54.688,-124.023
1706612759.939,-28.809,-138.672,-64.453,-29.785,73.730
1706612759.943,-31.250,-114.258,-55.176,-19.531,141.113
1706612759.947,-0.488,-84.473,-50.293,-41.016,-96.680
1706612759.951,-8.789,-121.094,-54.199,-46.387,12.695
1706612759.955,-27.344,-125.488,-65.430,-52.246,139.160
1706612759.958,-5.371,-122.070,-61.035,-47.363,-36.621
1706612759.962,-15.137,-148.926,-57.129,-37.598,98.145
1706612759.966,-33.203,-146.484,-55.176,-39.062,351.562
1706612759.970,-34.668,-105.957,-57.617,-57.617,59.082
1706612759.974,-25.391,-96.191,-58.594,-68.359,-122.559
1706612759.977,-21.484,-110.840,-57.617,-61.035,-93.750
1706612759.981,-38.574,-101.562,-57.129,-64.453,-150.391
1706612759.985,-29.785,-107.910,-56.641,-71.777,-90.820
1706612759.989,-33.691,-117.188,-55.664,-62.500,-20.996
1706612759.993,-56.152,-119.141,-54.199,-50.781,-59.570
1706612759.997,-45.898,-121.094,-56.152,-41.504,-91.309
1706612760.001,-43.457,-113.770,-57.129,-50.293,24.414
1706612760.004,-33.691,-145.508,-60.059,-64.453,135.254
1706612760.008,-26.367,-147.949,-63.965,-59.570,297.363
1706612760.012,-27.832,-95.703,-60.059,-59.082,64.941
1706612760.016,-20.020,-110.352,-57.617,-59.570,-78.613
1706612760.020,-37.598,-125.977,-59.082,-63.477,46.387
1706612760.022,-42.480,-103.027,-53.711,-67.383,-58.105
1706612760.026,-32.715,-103.027,-47.363,-56.152,-140.137
1706612760.030,-30.273,-123.535,-50.293,-47.852,-88.379
1706612760.034,-34.180,-129.395,-53.223,-48.828,-35.156
1706612760.038,-33.203,-119.141,-54.199,-53.223,-72.754
1706612760.042,-33.691,-124.512,-55.176,-58.594,-4.395
1706612760.046,-34.180,-130.371,-58.594,-45.410,101.074
1706612760.049,-33.691,-138.184,-59.082,-32.715,188.477
1706612760.053,-15.137,-102.539,-55.176,-44.922,52.734
1706612760.057,-15.137,-97.168,-53.223,-58.594,-131.836
1706612760.061,-32.715,-129.395,-52.734,-55.176,-117.188
1706612760.065,-32.715,-123.047,-52.734,-51.270,-182.129
1706612760.068,-41.016,-114.258,-51.758,-54.688,-186.035
1706612760.072,-42.480,-121.094,-56.641,-29.297,-51.758
1706612760.076,-31.250,-135.254,-58.594,-26.855,27.832
1706612760.080,-24.902,-120.605,-56.641,-68.848,28.809
1706612760.084,-38.086,-101.562,-58.105,-66.406,-0.977
1706612760.088,-30.273,-108.887,-62.988,-52.246,43.945
1706612760.092,-25.879,-127.930,-69.336,-51.758,255.859
1706612760.095,-34.180,-127.930,-72.754,-52.734,358.398
1706612760.099,-21.973,-83.984,-69.336,-69.336,81.055
1706612760.103,-8.301,-84.473,-64.453,-65.918,-56.641
1706612760.107,-14.160,-124.023,-63.965,-41.992,59.082
1706612760.111,-39.551,-112.793,-60.059,-34.668,76.172
1706612760.112,-42.480,-93.262,-63.477,-45.898,-84.473
1706612760.116,-38.574,-112.793,-68.848,-59.082,-96.191
1706612760.120,-31.738,-114.258,-67.383,-61.523,42.480
1706612760.124,-36.133,-112.305,-61.035,-48.828,89.355
1706612760.128,-50.781,-115.234,-60.547,-35.156,-22.461
1706612760.132,-35.645,-122.559,-62.988,-37.598,80.078
1706612760.136,-31.250,-149.902,-63.477,-41.504,337.402
1706612760.139,-57.129,-119.141,-66.895,-69.824,175.781
1706612760.143,-56.641,-84.961,-69.336,-84.961,-134.766
1706612760.147,-28.809,-125.488,-75.195,-59.082,-66.895
1706612760.151,-27.832,-126.953,-83.008,-49.805,81.055
1706612760.155,-29.785,-115.234,-69.824,-46.387,-26.855
1706612760.157,-46.387,-127.441,-54.688,-54.688,-122.070
1706612760.161,-61.523,-140.137,-56.641,-73.242,-41.992
1706612760.165,-62.012,-137.695,-53.711,-64.453,-68.359
1706612760.169,-61.523,-124.512,-52.246,-58.105,-106.934
1706612760.173,-51.270,-132.812,-55.176,-71.777,-41.992
1706612760.177,-46.387,-154.297,-53.711,-70.801,80.566
1706612760.181,-57.617,-146.973,-51.270,-58.594,133.301
1706612760.184,-55.664,-133.301,-51.758,-53.711,55.664
1706612760.188,-44.434,-122.070,-53.223,-62.500,11.230
1706612760.192,-44.434,-142.578,-57.129,-65.430,143.066
1706612760.196,-63.477,-158.691,-56.641,-60.059,383.301
1706612760.200,-83.984,-109.863,-48.828,-63.477,164.551
1706612760.217,-72.754,-100.586,-54.688,-57.129,-12.695
1706612760.221,-60.547,-129.883,-53.711,-40.039,58.594
1706612760.225,-51.758,-130.371,-49.805,-40.527,-59.570
1706612760.229,-59.082,-119.141,-55.664,-74.707,-158.203
1706612760.233,-72.754,-135.254,-59.082,-80.078,-56.641
1706612760.237,-67.383,-153.809,-57.617,-49.805,125.977
1706612760.241,-54.199,-142.578,-55.664,-50.293,85.449
1706612760.244,-28.320,-131.348,-62.500,-57.617,-64.941
1706612760.248,-18.066,-148.926,-63.965,-58.594,-90.820
1706612760.252,-61.035,-172.852,-59.570,-63.477,136.719
1706612760.256,-77.148,-124.512,-55.664,-65.918,88.379
1706612760.260,-49.316,-108.887,-53.711,-69.824,-114.258
1706612760.262,-35.156,-138.184,-56.641,-74.219,-3.418
1706612760.266,-38.574,-129.395,-56.641,-70.801,-19.043
1706612760.270,-43.945,-115.723,-51.758,-67.871,-66.406
1706612760.274,-49.805,-125.000,-54.199,-61.523,-47.852
1706612760.278,-45.410,-142.578,-56.641,-46.875,-53.711
1706612760.282,-28.809,-141.113,-52.734,-44.922,31.738
1706612760.286,-25.391,-134.766,-45.898,-50.293,85.449
1706612760.289,-10.742,-117.676,-46.875,-61.523,36.621
1706612760.293,-21.484,-141.602,-48.828,-47.363,187.988
1706612760.297,-46.875,-162.109,-44.922,-35.156,344.238
1706612760.301,-39.062,-113.281,-42.969,-64.453,66.895
1706612760.305,-31.738,-108.398,-47.363,-68.848,-79.102
1706612760.307,-40.039,-128.418,-51.270,-63.477,31.738
1706612760.311,-33.691,-112.793,-46.387,-49.805,21.484
1706612760.315,-30.762,-112.305,-43.457,-49.316,-40.527
1706612760.319,-22.461,-136.230,-43.945,-42.480,-30.273
1706612760.323,-10.742,-136.230,-42.969,-37.109,5.371
1706612760.327,-21.484,-129.883,-52.246,-54.688,34.180
1706612760.331,-22.949,-125.977,-60.547,-58.594,34.180
1706612760.334,-13.184,-131.348,-59.570,-49.316,66.895
1706612760.338,-14.648,-141.602,-59.082,-33.691,223.633
1706612760.342,-32.227,-110.840,-55.664,-47.852,67.383
1706612760.346,-62.012,-114.258,-52.734,-83.496,-156.738
1706612760.350,-61.035,-140.625,-55.664,-74.707,-96.680
1706612760.352,-45.410,-136.230,-58.105,-58.105,20.508
1706612760.356,-44.922,-119.141,-56.641,-63.477,45.898
1706612760.360,-48.828,-118.652,-56.152,-67.383,4.395
1706612760.364,-36.621,-143.555,-58.105,-58.105,32.227
1706612760.368,-43.457,-133.789,-64.453,-66.406,91.797
1706612760.372,-71.777,-125.000,-70.312,-61.035,67.871
1706612760.376,-60.059,-127.930,-64.941,-51.758,-34.668
1706612760.379,-41.504,-142.090,-57.129,-59.082,95.703
1706612760.383,-44.922,-148.438,-58.594,-52.734,320.312
1706612760.387,-46.875,-95.215,-61.523,-63.477,40.039
1706612760.391,-22.949,-93.262,-64.941,-70.312,-106.934
1706612760.395,-29.297,-117.188,-67.383,-65.430,-46.387
1706612760.397,-63.477,-117.188,-59.082,-59.082,-91.797
1706612760.401,-62.012,-115.234,-55.176,-72.754,-140.137
1706612760.405,-57.129,-127.930,-58.594,-78.125,-118.164
1706612760.409,-62.012,-131.836,-57.617,-62.988,-9.277
1706612760.413,-43.457,-114.746,-64.941,-62.500,-94.238
1706612760.417,-36.621,-121.582,-66.895,-75.195,-57.129
1706612760.421,-40.527,-129.883,-72.266,-89.355,-35.156
1706612760.424,-50.293,-149.902,-74.707,-77.637,212.891
1706612760.428,-84.961,-125.488,-52.246,-49.805,216.309
1706612760.432,-71.289,-102.539,-47.852,-44.922,-101.562
1706612760.436,-43.457,-125.977,-56.152,-51.270,-116.699
1706612760.440,-33.691,-121.582,-58.105,-68.359,-65.430
1706612760.442,-10.254,-104.492,-55.664,-69.824,-96.191
1706612760.446,-16.602,-107.910,-59.082,-58.105,-80.566
1706612760.450,-44.434,-116.699,-66.895,-59.570,12.207
1706612760.454,-52.246,-112.793,-51.758,-45.898,-15.625
1706612760.458,-49.316,-109.375,-51.758,-60.547,-40.039
1706612760.462,-34.180,-100.586,-74.707,-102.051,60.059
1706612760.466,-32.227,-126.953,-72.266,-77.637,327.637
1706612760.469,-43.945,-143.555,-60.059,-47.363,317.871
1706612760.473,-31.250,-103.027,-59.082,-62.012,116.211
1706612760.477,-18.555,-89.355,-69.824,-83.008,-18.555
1706612760.481,-34.668,-120.605,-67.871,-65.430,125.977
1706612760.485,-58.105,-121.582,-58.105,-53.711,275.879
1706612760.487,-31.738,-87.402,-70.312,-75.195,-26.367
1706612760.491,6.348,-111.816,-71.777,-83.984,-87.891
1706612760.495,9.766,-113.770,-56.641,-97.168,32.715
1706612760.499,-8.789,-102.539,-53.711,-103.516,-61.035
1706612760.503,-30.273,-104.004,-54.199,-83.008,-122.070
1706612760.507,-34.180,-117.676,-65.918,-77.148,21.484
1706612760.511,-40.039,-134.277,-60.547,-70.801,245.605
1706612760.514,-60.059,-124.023,-48.828,-66.406,176.270
1706612760.518,-51.758,-116.211,-64.453,-99.609,-85.449
1706612760.522,-43.945,-132.324,-66.406,-75.195,4.883
1706612760.526,-73.730,-146.484,-50.293,-27.344,250.000
1706612760.530,-76.172,-112.793,-44.434,-44.434,86.426
1706612760.532,-48.340,-110.352,-55.664,-79.590,-124.023
1706612760.536,-47.852,-125.000,-52.734,-78.613,14.160
1706612760.540,-59.570,-124.512,-39.551,-45.898,87.402
1706612760.544,-54.199,-123.047,-50.293,-36.133,-52.734
1706612760.548,-46.875,-133.789,-55.664,-11.719,-54.199
1706612760.552,-27.344,-152.832,-52.246,-10.742,100.098
1706612760.556,-33.691,-135.742,-61.035,-55.176,187.012
1706612760.559,-55.176,-119.629,-58.105,-44.922,125.488
1706612760.563,-47.852,-124.512,-57.129,-39.551,-68.359
1706612760.567,-32.227,-161.621,-62.988,-27.832,62.500
1706612760.571,-38.086,-167.480,-56.152,-5.859,376.953
1706612760.575,-47.363,-95.215,-62.012,-61.523,71.289
1706612760.592,-41.504,-97.656,-69.824,-90.332,-177.246
1706612760.596,-55.664,-127.441,-59.570,-59.570,-7.812
1706612760.600,-47.852,-122.559,-48.340,-28.809,-39.551
1706612760.604,-45.898,-137.695,-49.316,-10.742,-158.691
1706612760.608,-42.480,-142.578,-64.941,-28.320,-43.945
1706612760.612,-12.695,-130.371,-75.195,-52.246,56.152
1706612760.616,-27.344,-123.535,-64.453,-36.621,12.207
1706612760.619,-28.809,-111.328,-65.430,-41.016,-81.055
1706612760.623,-35.156,-131.836,-68.848,-41.016,-84.473
1706612760.627,-64.453,-159.668,-49.316,-6.836,107.422
1706612760.631,-34.668,-119.141,-52.734,-7.812,67.871
1706612760.635,-47.363,-118.164,-67.871,-35.645,-140.625
1706612760.637,-53.711,-151.855,-64.453,-39.551,30.273
1706612760.641,-40.039,-142.578,-59.082,-29.785,120.117
1706612760.645,-72.754,-123.047,-50.781,-48.828,-117.676
1706612760.649,-72.266,-132.812,-56.641,-64.941,-160.156
1706612760.653,-65.918,-145.996,-52.246,-46.387,-59.082
1706612760.657,-70.312,-140.625,-47.852,-26.367,102.539
1706612760.661,-69.824,-134.277,-58.105,-45.410,104.004
1706612760.664,-63.965,-133.301,-64.941,-74.219,64.453
1706612760.668,-42.969,-153.320,-74.219,-81.055,219.727
1706612760.672,-55.176,-157.227,-65.430,-34.668,277.832
1706612760.676,-71.777,-108.398,-48.340,-15.137,10.742
1706612760.680,-53.711,-114.258,-61.035,-39.062,-132.812
1706612760.683,-35.645,-127.930,-75.195,-60.547,-85.449
1706612760.687,-26.855,-118.164,-62.012,-53.711,-154.785
1706612760.691,-42.969,-126.465,-60.059,-39.062,-91.309
1706612760.695,-56.641,-136.230,-67.383,-38.574,20.020
1706612760.699,-43.457,-138.672,-62.500,-35.156,63.965
1706612760.703,-40.527,-139.648,-62.012,-35.156,47.363
1706612760.707,-59.082,-139.160,-61.035,-50.781,-11.230
1706612760.710,-55.664,-138.672,-63.477,-54.199,-37.598
1706612760.714,-40.527,-137.695,-73.730,-34.668,129.883
1706612760.718,-30.762,-107.422,-72.266,-46.387,67.871
1706612760.722,-36.133,-112.793,-68.359,-67.871,-186.523
1706612760.726,-44.922,-141.602,-67.383,-63.965,-114.258
1706612760.727,-47.852,-134.277,-62.988,-57.617,-57.617
1706612760.731,-47.852,-118.652,-60.547,-52.734,-107.910
1706612760.735,-37.598,-129.883,-61.523,-42.480,-113.281
1706612760.739,-39.551,-142.090,-58.105,-37.109,-57.617
1706612760.743,-32.227,-137.695,-55.176,-48.340,-10.254
1706612760.747,-24.414,-131.836,-60.547,-62.500,69.824
1706612760.751,-41.504,-123.535,-74.219,-62.988,14.160
1706612760.754,-45.898,-145.996,-70.312,-37.109,133.789
1706612760.758,-31.250,-180.176,-67.383,-36.621,509.766
