Timestamp,C3,CZ,C4,FCZ,FC3,CP4,CPZ,CP3,FC4
0.0,1.1290066242218018,-0.7262454628944397,-1.7012304067611694,2.7220795154571533,2.582005739212036,-1.5205974578857422,-1.0412369966506958,1.0733634233474731,0.9540931582450867
0.003145500086247921,1.4618775844573975,-1.5529000759124756,-2.905946731567383,2.0271503925323486,2.5242843627929688,-2.303189754486084,-1.556817650794983,1.3293735980987549,-0.29227036237716675
0.00608349998947233,1.6161446571350098,-2.388819932937622,-3.9824771881103516,1.1836549043655396,2.229370355606079,-2.985647201538086,-2.2036709785461426,1.544058084487915,-1.6299721002578735
0.0091594000114128,1.4881591796875,-3.3051645755767822,-4.913039207458496,0.17056754231452942,1.6104495525360107,-3.657050609588623,-3.08014178276062,1.660330891609192,-3.005303144454956
0.012005000025965273,1.0340831279754639,-4.349297523498535,-5.728735446929932,-1.0118298530578613,0.6461793780326843,-4.429612636566162,-4.23222017288208,1.6153361797332764,-4.3702073097229
0.015045000007376075,0.282301664352417,-5.525975227355957,-6.493664741516113,-2.3334383964538574,-0.6032044291496277,-5.403378486633301,-5.635061264038086,1.3578969240188599,-5.682037830352783
0.017952000023797154,-0.6829521059989929,-6.796520709991455,-7.278660297393799,-3.7359719276428223,-2.0124688148498535,-6.63381814956665,-7.196009635925293,0.8604386448860168,-6.901869297027588
0.021740199998021126,-1.7313756942749023,-8.080750465393066,-8.124273300170898,-5.136562347412109,-3.4128260612487793,-8.1029052734375,-8.767253875732422,0.1437656432390213,-7.98654317855835
0.024885500082746148,-2.732877492904663,-9.278852462768555,-9.020011901855469,-6.444150447845459,-4.640439510345459,-9.714688301086426,-10.180031776428223,-0.7262766361236572,-8.890358924865723
0.027892000041902065,-3.5781118869781494,-10.290281295776367,-9.892309188842773,-7.572137832641602,-5.568110942840576,-11.30669116973877,-11.277798652648926,-1.642903208732605,-9.562978744506836
0.030856900033541024,-4.200464248657227,-11.036559104919434,-10.620696067810059,-8.455735206604004,-6.133995056152344,-12.684295654296875,-11.94757080078125,-2.4804439544677734,-9.958348274230957
0.03390919999219477,-4.586038589477539,-11.477723121643066,-11.076186180114746,-9.065145492553711,-6.351987361907959,-13.66910457611084,-12.145285606384277,-3.1307849884033203,-10.05439281463623
0.03711460006888956,-4.7664313316345215,-11.6151704788208,-11.160057067871094,-9.40556812286377,-6.2961812019348145,-14.139408111572266,-11.898341178894043,-3.531829357147217,-9.860965728759766
0.04023709998000413,-4.803499221801758,-11.481668472290039,-10.832488059997559,-9.508711814880371,-6.075537204742432,-14.054383277893066,-11.292868614196777,-3.6833553314208984,-9.419812202453613
0.04309460008516908,-4.766374588012695,-11.124744415283203,-10.128079414367676,-9.41866397857666,-5.8035149574279785,-13.45678424835205,-10.449173927307129,-3.6451737880706787,-8.800206184387207
0.04621549998410046,-4.712536811828613,-10.587581634521484,-9.143136978149414,-9.173901557922363,-5.567570686340332,-12.454081535339355,-9.489418029785156,-3.5139551162719727,-8.080787658691406
0.04924660001415759,-4.6814727783203125,-9.89687728881836,-8.006271362304688,-8.798262596130371,-5.419981002807617,-11.183032989501953,-8.5115385055542,-3.391371488571167,-7.326455116271973
0.05209220002871007,-4.68380069732666,-9.056489944458008,-6.838141918182373,-8.297489166259766,-5.370932579040527,-9.77091121673584,-7.57027530670166,-3.345529794692993,-6.570520877838135
0.05511020007543266,-4.701107978820801,-8.051162719726562,-5.714480876922607,-7.662993907928467,-5.3953680992126465,-8.303764343261719,-6.669033527374268,-3.385380983352661,-5.803570747375488
0.05807310005184263,-4.694116592407227,-6.862250328063965,-4.654853820800781,-6.887897968292236,-5.446634769439697,-6.819948673248291,-5.772543430328369,-3.4609627723693848,-4.986108303070068
0.061043200083076954,-4.6098713874816895,-5.483153820037842,-3.6277413368225098,-5.979328632354736,-5.46730375289917,-5.316294193267822,-4.82399320602417,-3.4834063053131104,-4.068539619445801
0.06360110000241548,-4.398972511291504,-3.9314472675323486,-2.5716772079467773,-4.9664835929870605,-5.404606342315674,-3.771174669265747,-3.7676775455474854,-3.359508991241455,-3.013270854949951
0.06654290005099028,-4.0288872718811035,-2.256098747253418,-1.4401894807815552,-3.900668144226074,-5.214463710784912,-2.179513692855835,-2.5734028816223145,-3.030979871749878,-1.822333574295044
0.06955170002765954,-3.490994930267334,-0.5325210690498352,-0.22285865247249603,-2.8439736366271973,-4.865947246551514,-0.5675976276397705,-1.249009609222412,-2.497077465057373,-0.545075535774231
0.07264160003978759,-2.818821430206299,1.1463333368301392,1.0343892574310303,-1.8563615083694458,-4.3502583503723145,0.9952490329742432,0.1531544178724289,-1.8270624876022339,0.7280017137527466
0.07550640008412302,-2.072286605834961,2.691929578781128,2.246279001235962,-0.9752271771430969,-3.670991897583008,2.4174695014953613,1.5507330894470215,-1.131022334098816,1.895238995552063
0.07851360004860908,-1.336383581161499,4.035132884979248,3.317152738571167,-0.20743849873542786,-2.850632429122925,3.6151938438415527,2.849520683288574,-0.5270403623580933,2.8724868297576904
0.0815152000868693,-0.6993877291679382,5.138670444488525,4.174719333648682,0.4705263376235962,-1.9264487028121948,4.542361259460449,3.967282295227051,-0.10383681207895279,3.6226987838745117
0.08398270001634955,-0.21832071244716644,6.008636951446533,4.807920455932617,1.1075044870376587,-0.9366188645362854,5.223693370819092,4.862619400024414,0.11633798480033875,4.168636798858643
0.08722750004380941,0.08875268697738647,6.685783386230469,5.272924900054932,1.7561601400375366,0.07441667467355728,5.75413703918457,5.544430732727051,0.17997728288173676,4.585757255554199
0.09006940003018826,0.2593858540058136,7.235122203826904,5.675685882568359,2.456752061843872,1.0678991079330444,6.274996757507324,6.069330215454102,0.1860451102256775,4.975892543792725
0.09256860008463264,0.3668422996997833,7.72312593460083,6.132726669311523,3.216796398162842,2.0025429725646973,6.928946018218994,6.519542217254639,0.24561838805675507,5.429982662200928
0.09555720002390444,0.49848198890686035,8.196380615234375,6.723358631134033,4.004822254180908,2.839566469192505,7.807740211486816,6.971705436706543,0.43824630975723267,5.994365215301514
0.09811470005661249,0.7202083468437195,8.662410736083984,7.4511542320251465,4.7507781982421875,3.5353753566741943,8.908066749572754,7.46299934387207,0.7777090072631836,6.649796962738037
0.10106890008319169,1.0533511638641357,9.084015846252441,8.230032920837402,5.360260963439941,4.050581455230713,10.116214752197266,7.969332695007324,1.1994513273239136,7.313154697418213
0.104163600015454,1.4477782249450684,9.381268501281738,8.905261993408203,5.731772422790527,4.3423871994018555,11.228556632995605,8.40127182006836,1.5732051134109497,7.859248161315918
0.10705850005615503,1.8073697090148926,9.45673656463623,9.303544998168945,5.785756587982178,4.385280132293701,12.00733470916748,8.631485939025879,1.7507104873657227,8.160623550415039
0.11003800004255027,2.014251232147217,9.221222877502441,9.291197776794434,5.484457015991211,4.177865505218506,12.25145149230957,8.533578872680664,1.613508939743042,8.123361587524414
0.11334430007264018,1.9698611497879028,8.62606143951416,8.829721450805664,4.846897125244141,3.747877836227417,11.866655349731445,8.03032112121582,1.1190751791000366,7.721962928771973
0.11613770003896207,1.6362868547439575,7.686370849609375,7.999765396118164,3.9538159370422363,3.156318426132202,10.906131744384766,7.131688117980957,0.32712870836257935,7.008251190185547
0.1192930000834167,1.051723599433899,6.486534118652344,6.9834065437316895,2.935410737991333,2.487855911254883,9.565746307373047,5.942958354949951,-0.6114858984947205,6.099165916442871
0.12215060007292777,0.33930376172065735,5.17357873916626,6.021999359130859,1.9540047645568848,1.8458236455917358,8.143220901489258,4.650400161743164,-1.4848041534423828,5.15158748626709
0.12497510004322976,-0.3382459282875061,3.923616647720337,5.341131687164307,1.1701170206069946,1.3249657154083252,6.956651210784912,3.471510410308838,-2.083265781402588,4.31949520111084
0.12797030003275722,-0.8165387511253357,2.90423583984375,5.083872318267822,0.7109135389328003,1.0005671977996826,6.258237361907959,2.596637725830078,-2.2548086643218994,3.7164809703826904
0.13114250008948147,-0.9815084934234619,2.2344226837158203,5.265206336975098,0.641866147518158,0.9104267954826355,6.164012432098389,2.1348540782928467,-1.9495066404342651,3.3895325660705566
0.13375849998556077,-0.8044657111167908,1.9561680555343628,5.765040397644043,0.9518066048622131,1.047837495803833,6.622480392456055,2.082397222518921,-1.2336949110031128,3.3097383975982666
0.13700920005794615,-0.3501981198787689,2.0239365100860596,6.358933925628662,1.5533696413040161,1.3624522686004639,7.425650119781494,2.3215365409851074,-0.2709583640098572,3.384777784347534
0.13976200006436557,0.23859354853630066,2.3163022994995117,6.7823309898376465,2.301809549331665,1.764807105064392,8.265246391296387,2.653968572616577,0.7236796021461487,3.4886934757232666
0.14273880003020167,0.7915812730789185,2.666201591491699,6.7986040115356445,3.0282576084136963,2.149639129638672,8.811978340148926,2.853579521179199,1.5439800024032593,3.4902117252349854
0.14573119999840856,1.1547579765319824,2.9004831314086914,6.265842914581299,3.5790367126464844,2.413424491882324,8.797253608703613,2.724715232849121,2.0424740314483643,3.294140577316284
0.14882620004937053,1.242114782333374,2.8828630447387695,5.172508239746094,3.8519647121429443,2.4830377101898193,8.077707290649414,2.152818202972412,2.167435646057129,2.8619961738586426
0.15176580008119345,1.0548146963119507,2.541994571685791,3.6352322101593018,3.8167600631713867,2.3309245109558105,6.660892486572266,1.1266535520553589,1.9635417461395264,2.216703176498413
0.15478690003510565,0.6734278798103333,1.882655143737793,1.8630666732788086,3.5151376724243164,1.9839048385620117,4.6915178298950195,-0.26655489206314087,1.5451838970184326,1.4314786195755005
0.1577233000425622,0.23229748010635376,0.9805696606636047,0.10631922632455826,3.0436320304870605,1.5182819366455078,2.412240743637085,-1.8661469221115112,1.0575350522994995,0.6092699766159058
0.16069290006998926,-0.12384430319070816,-0.04117296636104584,-1.4026230573654175,2.522275924682617,1.0423117876052856,0.10302519053220749,-3.4790804386138916,0.6313621401786804,-0.14417904615402222
0.16299219999928027,-0.28306496143341064,-1.0448013544082642,-2.4981448650360107,2.057143211364746,0.6660895943641663,-1.980216383934021,-4.922767639160156,0.3513193726539612,-0.7473315596580505
0.16599650005809963,-0.1973397582769394,-1.9112396240234375,-3.10732102394104,1.7111437320709229,0.47120460867881775,-3.652556896209717,-6.061045169830322,0.24018456041812897,-1.1563785076141357
0.168947400059551,0.11235618591308594,-2.5636110305786133,-3.249072313308716,1.4907875061035156,0.4882550537586212,-4.821895122528076,-6.822626113891602,0.2686554491519928,-1.369508981704712
0.1721786999842152,0.5685485601425171,-2.976046562194824,-3.012474775314331,1.3551586866378784,0.6918869614601135,-5.488147735595703,-7.201613903045654,0.37942591309547424,-1.414009690284729
0.17493840004317462,1.0642887353897095,-3.1735546588897705,-2.534372091293335,1.233089566230774,1.0088411569595337,-5.729969024658203,-7.250542640686035,0.5127550363540649,-1.3433215618133545
0.17793390003498644,1.493595838546753,-3.215914487838745,-1.9624667167663574,1.0528767108917236,1.3388859033584595,-5.672043323516846,-7.058292865753174,0.6281204223632812,-1.2176648378372192
0.1812078000511974,1.77989661693573,-3.1752452850341797,-1.4329767227172852,0.7684528827667236,1.5864322185516357,-5.458792209625244,-6.728494644165039,0.7152367234230042,-1.0919077396392822
0.1839682999998331,1.8749287128448486,-3.1203110218048096,-1.060227632522583,0.37036532163619995,1.6779946088790894,-5.233431339263916,-6.363286018371582,0.7831633687019348,-1.0121355056762695
0.18702110007870942,1.7748093605041504,-3.095319986343384,-0.9202066659927368,-0.10717914253473282,1.5859133005142212,-5.114572048187256,-6.044388294219971,0.8532887101173401,-1.0048177242279053
0.19001010002102703,1.494348406791687,-3.118443012237549,-1.0545247793197632,-0.601851224899292,1.3226343393325806,-5.188716411590576,-5.828495979309082,0.9330815672874451,-1.077265977859497
0.19295310007873923,1.0656986236572266,-3.179588556289673,-1.4647141695022583,-1.0374410152435303,0.9348344206809998,-5.502055644989014,-5.741818904876709,1.0142580270767212,-1.2109702825546265
0.19588770007248968,0.5117917060852051,-3.255253314971924,-2.1128041744232178,-1.3487770557403564,0.4749015271663666,-6.057420253753662,-5.787286281585693,1.0596323013305664,-1.3667848110198975
0.19876180007122457,-0.13658688962459564,-3.3140196800231934,-2.926701545715332,-1.4910227060317993,-0.0011726508382707834,-6.814676761627197,-5.945414066314697,1.0209251642227173,-1.4911295175552368
0.20175740006379783,-0.8448622822761536,-3.3306658267974854,-3.806112051010132,-1.4518181085586548,-0.4527214467525482,-7.695663928985596,-6.18193244934082,0.850512683391571,-1.5285236835479736
0.2048380000051111,-1.5630906820297241,-3.287564992904663,-4.634259223937988,-1.2479655742645264,-0.8515104651451111,-8.591302871704102,-6.4500226974487305,0.5214391350746155,-1.4366765022277832
0.20772750000469387,-2.220808744430542,-3.1787116527557373,-5.30472993850708,-0.9238478541374207,-1.1821197271347046,-9.383103370666504,-6.697320938110352,0.03915773704648018,-1.2065836191177368
0.2107271000277251,-2.7244954109191895,-2.999957323074341,-5.730457782745361,-0.5368318557739258,-1.42652428150177,-9.95578670501709,-6.863937854766846,-0.5542259216308594,-0.864063024520874
0.2129531999817118,-2.981184244155884,-2.7466695308685303,-5.864534378051758,-0.14878714084625244,-1.5636993646621704,-10.218706130981445,-6.889242649078369,-1.1911016702651978,-0.4695320427417755
0.2159600000595674,-2.913630962371826,-2.406473159790039,-5.703205108642578,0.18770337104797363,-1.5677247047424316,-10.1175537109375,-6.714362144470215,-1.7905036211013794,-0.09950021654367447
0.21894849999807775,-2.4921205043792725,-1.9606990814208984,-5.28162145614624,0.437618225812912,-1.414663314819336,-9.640091896057129,-6.291929244995117,-2.2810328006744385,0.17843247950077057
0.22206060006283224,-1.7563297748565674,-1.3912947177886963,-4.6601643562316895,0.5907846689224243,-1.0930534601211548,-8.81291675567627,-5.596729278564453,-2.6191906929016113,0.32927340269088745
0.22507340006995946,-0.8200623989105225,-0.688799262046814,-3.909074544906616,0.6626286506652832,-0.6131982803344727,-7.692296981811523,-4.635430335998535,-2.799274206161499,0.3639591634273529
0.227909000008367,0.1516161859035492,0.1384965032339096,-3.0923914909362793,0.6916781067848206,-0.007288903929293156,-6.3486127853393555,-3.4509530067443848,-2.8483071327209473,0.3391207754611969
0.23090780002530664,0.9785387516021729,1.06396484375,-2.254861831665039,0.7322225570678711,0.6751049160957336,-4.853099346160889,-2.1193509101867676,-2.8156838417053223,0.3415454924106598
0.23307379998732358,1.5150318145751953,2.0476839542388916,-1.416738748550415,0.8457608819007874,1.3804535865783691,-3.2646684646606445,-0.7339630722999573,-2.7509591579437256,0.46442174911499023
0.23606140003539622,1.6905657052993774,3.0492019653320312,-0.5728409290313721,1.0886130332946777,2.062997341156006,-1.6229841709136963,0.6142544150352478,-2.685701847076416,0.7825900316238403
0.23911810002755374,1.531817078590393,4.040438652038574,0.3036617636680603,1.502312421798706,2.693629264831543,0.0552646741271019,1.86056387424469,-2.6213889122009277,1.3349767923355103
0.24209840002004057,1.1624828577041626,5.018056392669678,1.2539860010147095,2.10710072517395,3.265994071960449,1.7748512029647827,2.9861536026000977,-2.523005962371826,2.123091220855713
0.24503610003739595,0.7459769248962402,5.994043350219727,2.311882495880127,2.890204906463623,3.7762835025787354,3.546123504638672,4.0151143074035645,-2.339777708053589,3.1095893383026123
0.24803660006728023,0.4457738697528839,6.989251136779785,3.4997870922088623,3.807196855545044,4.21666145324707,5.379087448120117,5.00806999206543,-2.0187957286834717,4.233306407928467
0.2510489000706002,0.37069639563560486,8.012837409973145,4.812546253204346,4.782848358154297,4.563092231750488,7.270656585693359,6.037875652313232,-1.5235531330108643,5.4198431968688965
0.2538226000033319,0.538001298904419,9.041802406311035,6.210967540740967,5.716933727264404,4.768296241760254,9.192093849182129,7.156809329986572,-0.8526890873908997,6.589053630828857
0.25699929997790605,0.8804116249084473,10.01441478729248,7.624401092529297,6.498558521270752,4.773706912994385,11.087042808532715,8.375407218933105,-0.03968191146850586,7.660527229309082
0.2598331000190228,1.2803784608840942,10.838883399963379,8.963515281677246,7.025363922119141,4.532107830047607,12.878762245178223,9.653684616088867,0.8591033220291138,8.560566902160645
0.26282210007775575,1.6233681440353394,11.414366722106934,10.135472297668457,7.222567081451416,4.032517910003662,14.480809211730957,10.909463882446289,1.7807347774505615,9.222959518432617
0.2657819000305608,1.8453375101089478,11.664182662963867,11.071306228637695,7.063717365264893,3.3230485916137695,15.819488525390625,12.041998863220215,2.6729140281677246,9.606313705444336
0.2687593000009656,1.9655872583389282,11.561967849731445,11.73432445526123,6.578995704650879,2.515289545059204,16.845972061157227,12.962295532226562,3.511523485183716,9.695477485656738
0.27184679999481887,2.076094388961792,11.142287254333496,12.122640609741211,5.850818157196045,1.7653629779815674,17.541847229003906,13.614068031311035,4.296866416931152,9.505706787109375
0.27476390008814633,2.3068504333496094,10.49384593963623,12.263603210449219,4.99785852432251,1.2406049966812134,17.920642852783203,13.984783172607422,5.046288013458252,9.083677291870117
0.27774260006845,2.7756009101867676,9.734552383422852,12.196754455566406,4.150306224822998,1.0784237384796143,18.014169692993164,14.099027633666992,5.777455806732178,8.496172904968262
0.2807526000542566,3.532870054244995,8.976673126220703,11.955917358398438,3.4192652702331543,1.3418164253234863,17.858142852783203,13.999153137207031,6.491079807281494,7.816128253936768
0.28299500001594424,4.539527893066406,8.296472549438477,11.557411193847656,2.8732945919036865,2.0005173683166504,17.47690200805664,13.7230863571167,7.1642680168151855,7.106112480163574
0.28597850003279746,5.670662879943848,7.720993518829346,11.009042739868164,2.5301780700683594,2.9334113597869873,16.883712768554688,13.2916259765625,7.7547783851623535,6.418283462524414
0.2892631000140682,6.745894432067871,7.228139400482178,10.314009666442871,2.355443239212036,3.9519901275634766,16.081159591674805,12.702983856201172,8.211758613586426,5.785190105438232
0.292148599983193,7.585874080657959,6.766583442687988,9.485306739807129,2.279000997543335,4.849440574645996,15.072007179260254,11.944496154785156,8.49538803100586,5.223088264465332
0.29498930007684976,8.051897048950195,6.27755069732666,8.5525484085083,2.2110824584960938,5.441855430603027,13.868443489074707,11.00628662109375,8.587628364562988,4.731568336486816
0.29797070007771254,8.081680297851562,5.71576452255249,7.555279731750488,2.0639562606811523,5.609344482421875,12.494465827941895,9.895024299621582,8.501607894897461,4.294048309326172
0.30094330001156777,7.680832862854004,5.056440830230713,6.533781051635742,1.7624274492263794,5.3079047203063965,10.984098434448242,8.635659217834473,8.267905235290527,3.874786138534546
0.30345110001508147,6.911498069763184,4.2913923263549805,5.502777576446533,1.2545344829559326,4.5689568519592285,9.365226745605469,7.263905048370361,7.924896717071533,3.4167187213897705
0.3066526000620797,5.8620781898498535,3.4199976921081543,4.447681427001953,0.5164018869400024,3.482116937637329,7.65551233291626,5.814725875854492,7.502292633056641,2.850321054458618
0.30950279999524355,4.626771926879883,2.4414117336273193,3.329616069793701,-0.4427020847797394,2.17026424407959,5.8601837158203125,4.309806823730469,7.015725612640381,2.1121389865875244
0.31245920003857464,3.290834426879883,1.353192687034607,2.1085073947906494,-1.5776149034500122,0.7652581930160522,3.9815785884857178,2.755401849746704,6.465923309326172,1.1697783470153809
0.3154751000693068,1.9370629787445068,0.16070587933063507,0.7736855745315552,-2.806600332260132,-0.6053876280784607,2.038236618041992,1.1511671543121338,5.850255966186523,0.04434855654835701
0.31848840008024126,0.6591921448707581,-1.1048344373703003,-0.6245326399803162,-4.011885166168213,-1.822245717048645,0.08556614071130753,-0.4887503981590271,5.179256916046143,-1.17269766330719
0.3219755000900477,-0.44041526317596436,-2.3794162273406982,-1.971849799156189,-5.057375907897949,-2.782951593399048,-1.778818964958191,-2.122519016265869,4.47966194152832,-2.3329200744628906
0.3255330000538379,-1.2483949661254883,-3.5602715015411377,-3.10404896736145,-5.805885314941406,-3.401550054550171,-3.4213175773620605,-3.6681337356567383,3.800757646560669,-3.2574431896209717
0.328415900003165,-1.6661790609359741,-4.521554470062256,-3.8518450260162354,-6.1472578048706055,-3.6160662174224854,-4.701713562011719,-5.013534069061279,3.1990439891815186,-3.7859556674957275
0.3334638000233099,-1.6339365243911743,-5.140573978424072,-4.093040466308594,-6.020713806152344,-3.395460605621338,-5.511562824249268,-6.037726402282715,2.72261118888855,-3.822096347808838
0.33760000008624047,-1.157200574874878,-5.332498550415039,-3.801154136657715,-5.433492183685303,-2.7507359981536865,-5.8152384757995605,-6.6461310386657715,2.3944575786590576,-3.3691816329956055
0.3423213000642136,-0.3239651620388031,-5.081238746643066,-3.0680124759674072,-4.462703227996826,-1.7436769008636475,-5.673876762390137,-6.802163600921631,2.2004003524780273,-2.5354738235473633
0.34810320008546114,0.7054952383041382,-4.453577041625977,-2.0925920009613037,-3.243612289428711,-0.4824160039424896,-5.246127128601074,-6.54639196395874,2.091357946395874,-1.5122313499450684
0.35272820002865046,1.720309853553772,-3.5976991653442383,-1.1433839797973633,-1.9478577375411987,0.8851718902587891,-4.762592792510986,-5.998802661895752,1.9923136234283447,-0.5312697291374207
0.36197700002230704,2.5047762393951416,-2.7137410640716553,-0.4926155209541321,-0.7523782849311829,2.191279411315918,-4.47563362121582,-5.335259914398193,1.8218400478363037,0.19326722621917725
0.36871810001321137,2.879638910293579,-2.009747266769409,-0.35171470046043396,0.19111183285713196,3.2719476222991943,-4.60010290145874,-4.749329566955566,1.509601354598999,0.5129612684249878
0.3714216999942437,2.7495040893554688,-1.6503087282180786,-0.8225449919700623,0.7819653153419495,3.997014045715332,-5.2614312171936035,-4.406154632568359,1.0147008895874023,0.37690338492393494
0.3786754000466317,2.1193370819091797,-1.7148686647415161,-1.8756043910980225,0.9854867458343506,4.290800094604492,-6.46226692199707,-4.4038987159729,0.33196908235549927,-0.16539008915424347
0.38090690004173666,1.1140462160110474,-2.166841506958008,-3.3510937690734863,0.8419986367225647,4.158174514770508,-8.072144508361816,-4.743107795715332,-0.4969504177570343,-0.9753919243812561
0.38360330008435994,-0.05318610742688179,-2.858917474746704,-4.997491836547852,0.45787322521209717,3.683858871459961,-9.851531982421875,-5.324709415435791,-1.3906433582305908,-1.8628997802734375
0.3865302000194788,-1.1191346645355225,-3.564016342163086,-6.5247063636779785,-0.01490500383079052,3.0202271938323975,-11.50037956237793,-5.971185684204102,-2.239767551422119,-2.6282095909118652
0.3929315999848768,-1.823514699935913,-4.025144100189209,-7.656299114227295,-0.40408316254615784,2.3624305725097656,-12.71315860748291,-6.461268424987793,-2.919837236404419,-3.098327159881592
0.3979856000514701,-1.9787859916687012,-4.019903659820557,-8.180668830871582,-0.5536905527114868,1.8965154886245728,-13.23808479309082,-6.5794172286987305,-3.317218780517578,-3.1565396785736084
0.4009758000029251,-1.524537444114685,-3.422157049179077,-7.996334552764893,-0.3615356981754303,1.747544288635254,-12.927998542785645,-6.1689581871032715,-3.3608224391937256,-2.7721781730651855
0.40467489999718964,-0.549604594707489,-2.2329599857330322,-7.116186141967773,0.20058508217334747,1.9403178691864014,-11.76165771484375,-5.167687892913818,-3.043613910675049,-1.988891839981079
0.4105566000798717,0.7186241745948792,-0.5862546563148499,-5.671199321746826,1.0755395889282227,2.3728697299957275,-9.84672737121582,-3.624213218688965,-2.431215524673462,-0.9247003197669983
0.4196385000832379,1.9635452032089233,1.2833236455917358,-3.87345290184021,2.1341989040374756,2.8262264728546143,-7.390196323394775,-1.688641905784607,-1.6579877138137817,0.25927048921585083
0.424574900069274,2.86545729637146,3.10201358795166,-1.9624885320663452,3.2095158100128174,3.0107975006103516,-4.648329257965088,0.42547643184661865,-0.8913747668266296,1.3988596200942993
0.4269837000174448,3.186164379119873,4.623991966247559,-0.15547719597816467,4.135530948638916,2.6260986328125,-1.8775134086608887,2.4896154403686523,-0.29209277033805847,2.3586316108703613
0.43057470000348985,2.83721923828125,5.690263271331787,1.4037508964538574,4.788690567016602,1.434781551361084,0.7167263031005859,4.312211036682129,0.033087391406297684,3.06400990486145
0.4344370000762865,1.9091804027557373,6.264841556549072,2.6740338802337646,5.114384651184082,-0.6766156554222107,3.011833667755127,5.780874729156494,0.0645187720656395,3.516531467437744
0.4374536999966949,0.6429223418235779,6.432701110839844,3.7165486812591553,5.135573387145996,-3.670262336730957,4.978367805480957,6.880685806274414,-0.12425536662340164,3.7865097522735596
0.4402364999987185,-0.6402749419212341,6.363681793212891,4.658509254455566,4.933816432952881,-7.363246440887451,6.661080837249756,7.681180477142334,-0.3929286003112793,3.982820987701416
0.44296290003694594,-1.6271123886108398,6.261025428771973,5.645490646362305,4.624273777008057,-11.460497856140137,8.15185260772705,8.308791160583496,-0.5736119151115417,4.21825647354126
0.44592570001259446,-2.0981295108795166,6.300256729125977,6.7826642990112305,4.319944381713867,-15.615336418151855,9.547433853149414,8.902619361877441,-0.5203997492790222,4.571106910705566
0.4493957000086084,-1.9683743715286255,6.586980819702148,8.095709800720215,4.106381893157959,-19.48483657836914,10.919928550720215,9.57393741607666,-0.14647069573402405,5.061474800109863
0.4521283999783918,-1.2995693683624268,7.134310245513916,9.516715049743652,4.025153160095215,-22.786317825317383,12.296393394470215,10.377297401428223,0.5580013394355774,5.646300315856934
0.45517680002376437,-0.2564167082309723,7.870297908782959,10.899580955505371,4.073906898498535,-25.328845977783203,13.650574684143066,11.299407958984375,1.536120891571045,6.2335591316223145
0.45864710002206266,0.9566919207572937,8.665541648864746,12.063651084899902,4.217202186584473,-27.0236873626709,14.913445472717285,12.267284393310547,2.690945863723755,6.713671684265137
0.4616286000236869,2.1511104106903076,9.369714736938477,12.84610652923584,4.399119853973389,-27.8873233795166,15.990423202514648,13.165983200073242,3.915891647338867,6.990806579589844
0.4640073000919074,3.2013678550720215,9.845755577087402,13.13983154296875,4.556771755218506,-28.019487380981445,16.776676177978516,13.862698554992676,5.119096755981445,7.004802703857422
0.46704910008702427,4.044127464294434,9.989692687988281,12.914440155029297,4.6253767013549805,-27.589601516723633,17.173437118530273,14.225591659545898,6.227522850036621,6.738907337188721
0.4704053000314161,4.665331840515137,9.740815162658691,12.213119506835938,4.542773723602295,-26.806283950805664,17.10321044921875,14.142057418823242,7.1815104484558105,6.213298797607422
0.4741646000184119,5.065674304962158,9.076894760131836,11.126826286315918,4.250089168548584,-25.8907470703125,16.519039154052734,13.530678749084473,7.921441555023193,5.466359615325928
0.4800956000108272,5.238778114318848,8.00942611694336,9.765819549560547,3.698575973510742,-25.041906356811523,15.416424751281738,12.35463809967041,8.383460998535156,4.541901111602783
0.483084800071083,5.1567792892456055,6.576684951782227,8.233205795288086,2.856623888015747,-24.410499572753906,13.840957641601562,10.631492614746094,8.502737045288086,3.480229616165161
0.48600700008682907,4.785491943359375,4.842732906341553,6.615275859832764,1.721983551979065,-24.075027465820312,11.892305374145508,8.441388130187988,8.233126640319824,2.3210980892181396
0.4889674000442028,4.114141941070557,2.901728630065918,4.986769199371338,0.3346094489097595,-24.02817153930664,9.722517967224121,5.931540489196777,7.577363014221191,1.1170845031738281
0.49230919999536127,3.1770808696746826,0.8779133558273315,3.42520809173584,-1.2184728384017944,-24.18589973449707,7.521785259246826,3.3069214820861816,6.604110240936279,-0.052336059510707855
0.49548490007873625,2.075775384902954,-1.078184723854065,2.018585205078125,-2.8070390224456787,-24.40367889404297,5.4938859939575195,0.8089030981063843,5.456514358520508,-1.081964135169983
0.4978279999922961,0.9673330783843994,-2.805955648422241,0.8684597611427307,-4.2733540534973145,-24.51247787475586,3.823740005493164,-1.3209772109985352,4.330918788909912,-1.8473262786865234
0.5037567000836134,0.022244254127144814,-4.164362907409668,0.07258745282888412,-5.462927341461182,-24.366445541381836,2.6423885822296143,-2.8849527835845947,3.4302046298980713,-2.2345736026763916
0.508149900007993,-0.6169788837432861,-5.05873441696167,-0.29827001690864563,-6.25299596786499,-23.86982536315918,2.003127336502075,-3.7681050300598145,2.9130547046661377,-2.1709206104278564
0.5114869000390172,-0.8826416730880737,-5.467089653015137,-0.22799494862556458,-6.582668781280518,-23.003280639648438,1.8684355020523071,-3.9659407138824463,2.847292184829712,-1.6558890342712402
0.5147670999867842,-0.8134697675704956,-5.451204776763916,0.22730667889118195,-6.4698872566223145,-21.825571060180664,2.118004322052002,-3.5896620750427246,3.1800808906555176,-0.7733566164970398
0.5178294000215828,-0.5442107915878296,-5.14595890045166,0.9413874745368958,-6.0115790367126465,-20.45357894897461,2.5745558738708496,-2.844554901123047,3.7496633529663086,0.3160121738910675
0.5211696000769734,-0.2708112895488739,-4.7296013832092285,1.736290454864502,-5.3638014793396,-19.030481338500977,3.040447950363159,-1.9878628253936768,4.323727607727051,1.4061784744262695
0.5240245000459254,-0.18483231961727142,-4.379389762878418,2.4182217121124268,-4.706083297729492,-17.683076858520508,3.3371312618255615,-1.2748298645019531,4.665098667144775,2.290121078491211
0.5267489000689238,-0.4076470136642456,-4.2263593673706055,2.8214240074157715,-4.1992645263671875,-16.488698959350586,3.339008331298828,-0.9045782685279846,4.599990367889404,2.8099780082702637
0.5298548000864685,-0.9547378420829773,-4.3264641761779785,2.8392081260681152,-3.9510300159454346,-15.463712692260742,2.985383987426758,-0.9874505400657654,4.059959888458252,2.887733221054077
0.5326929000439122,-1.716416358947754,-4.647893905639648,2.4383411407470703,-3.991633653640747,-14.561732292175293,2.280050039291382,-1.5290714502334595,3.101578950881958,2.532782554626465
0.5362470999825746,-2.505007266998291,-5.086939811706543,1.66305410861969,-4.275974273681641,-13.704854011535645,1.27372145652771,-2.44628643989563,1.877995491027832,1.8346701860427856
0.5404563000192866,-3.1209022998809814,-5.501118183135986,0.6112807989120483,-4.701482772827148,-12.819878578186035,0.03931695595383644,-3.59840726852417,0.5860743522644043,0.9303073883056641
0.5460474999854341,-3.4207043647766113,-5.753835678100586,-0.596779465675354,-5.142786979675293,-11.866349220275879,-1.3544390201568604,-4.8299970626831055,-0.5964841246604919,-0.038289956748485565
0.5486419000662863,-3.371272563934326,-5.749924659729004,-1.8438827991485596,-5.486482620239258,-10.857279777526855,-2.8561923503875732,-6.007480621337891,-1.5610709190368652,-0.9501290917396545
0.5516785000218078,-3.059426784515381,-5.454877853393555,-3.029844284057617,-5.655142784118652,-9.851079940795898,-4.430410385131836,-7.041942119598389,-2.2905945777893066,-1.7188777923583984
0.554527600063011,-2.653895378112793,-4.897640705108643,-4.078475475311279,-5.6199140548706055,-8.924467086791992,-6.047962188720703,-7.893459796905518,-2.8452932834625244,-2.2938053607940674
0.5581822000676766,-2.330493927001953,-4.146554470062256,-4.9248270988464355,-5.389434814453125,-8.131097793579102,-7.6626081466674805,-8.553126335144043,-3.316079616546631,-2.642108678817749
0.5611669000936672,-2.2031285762786865,-3.283722400665283,-5.5031418800354,-4.992211818695068,-7.470573425292969,-9.196105003356934,-9.021549224853516,-3.778470039367676,-2.7333672046661377
0.5664371000602841,-2.2817375659942627,-2.38236927986145,-5.746330261230469,-4.460082530975342,-6.878589630126953,-10.536275863647461,-9.292848587036133,-4.259914398193359,-2.537276268005371
0.5690611000172794,-2.4625020027160645,-1.4894732236862183,-5.59166145324707,-3.8111953735351562,-6.237497329711914,-11.5485200881958,-9.34306526184082,-4.721719741821289,-2.0279738903045654
0.5719687000382692,-2.5824267864227295,-0.6301080584526062,-5.007516860961914,-3.0532405376434326,-5.423587322235107,-12.110798835754395,-9.14102554321289,-5.086914539337158,-1.2052375078201294
0.5746793000726029,-2.481858015060425,0.18591399490833282,-4.012042045593262,-2.18849515914917,-4.34639835357666,-12.136460304260254,-8.662623405456543,-5.273776054382324,-0.11460983753204346
0.5771705000661314,-2.0857765674591064,0.9470584392547607,-2.6958768367767334,-1.2311538457870483,-3.0019261837005615,-11.608243942260742,-7.913754463195801,-5.2403645515441895,1.1391990184783936
0.5801835000747815,-1.429685115814209,1.6363716125488281,-1.215848684310913,-0.21233779191970825,-1.4724478721618652,-10.582509994506836,-6.9388227462768555,-5.004444599151611,2.40544056892395
0.5832664000336081,-0.6533799767494202,2.232828140258789,0.23083685338497162,0.818339467048645,0.08374818414449692,-9.177184104919434,-5.818767070770264,-4.642306804656982,3.513361692428589
0.5862468000268564,0.05179255083203316,2.7224347591400146,1.4561115503311157,1.802832007408142,1.4825440645217896,-7.536651611328125,-4.650455474853516,-4.262139797210693,4.316038608551025
0.5893448999850079,0.5156975984573364,3.1106066703796387,2.326167583465576,2.690197229385376,2.5705819129943848,-5.797603130340576,-3.5206596851348877,-3.96410870552063,4.728762626647949
0.5921459000092,0.6516155004501343,3.4288148880004883,2.8009302616119385,3.4509665966033936,3.274085521697998,-4.057832717895508,-2.4796502590179443,-3.808490037918091,4.756832122802734
0.5951134000206366,0.47995415329933167,3.7297005653381348,2.942098617553711,4.0816473960876465,3.615955114364624,-2.363311290740967,-1.5298250913619995,-3.7993505001068115,4.491786479949951
0.5977596000302583,0.11412907391786575,4.070284843444824,2.890918493270874,4.598835468292236,3.7036609649658203,-0.7175764441490173,-0.6301325559616089,-3.8911542892456055,4.0850043296813965
0.6006485000252724,-0.2861369550228119,4.492623805999756,2.8223695755004883,5.027427673339844,3.690704345703125,0.8964506983757019,0.2843886911869049,-4.010925769805908,3.7039577960968018
0.6033659999957308,-0.5750124454498291,5.009118556976318,2.892066717147827,5.385471820831299,3.7282161712646484,2.489745855331421,1.2740856409072876,-4.087984561920166,3.486208915710449
0.6062368000857532,-0.6636068820953369,5.596485137939453,3.195079803466797,5.673867225646973,3.9231457710266113,4.048050880432129,2.3697056770324707,-4.072817802429199,3.5087597370147705
0.6091177000198513,-0.5334925055503845,6.203866481781006,3.746405839920044,5.874264240264893,4.320963382720947,5.527665138244629,3.557945728302002,-3.943312644958496,3.7750070095062256
0.6121029000496492,-0.22249960899353027,6.769402027130127,4.487794399261475,5.956140995025635,4.909167766571045,6.865490913391113,4.780997276306152,-3.698066473007202,4.224110126495361
0.6151586000341922,0.20843538641929626,7.240905284881592,5.314863204956055,5.8885040283203125,5.638616561889648,7.998944282531738,5.952544689178467,-3.34149169921875,4.7540154457092285
0.6181099000386894,0.7172560095787048,7.590606689453125,6.113462924957275,5.655462265014648,6.453651428222656,8.885951042175293,6.9833903312683105,-2.863633871078491,5.250428676605225
0.6216783000854775,1.2943638563156128,7.816714286804199,6.784040451049805,5.261117935180664,7.309526443481445,9.513700485229492,7.80396032333374,-2.2417023181915283,5.60709810256958
0.6240941000869498,1.977647304534912,7.944029808044434,7.262522220611572,4.738040924072266,8.187723159790039,9.904346466064453,8.388842582702637,-1.43219792842865,5.744309425354004
0.6270883000688627,2.8208236694335938,8.00820255279541,7.51867151260376,4.139584541320801,9.08323860168457,10.10122299194336,8.76162052154541,-0.3911668360233307,5.615232467651367
0.6302170000271872,3.8746533393859863,8.04484748840332,7.549787998199463,3.5322840213775635,9.99649429321289,10.157280921936035,8.989988327026367,0.9115625619888306,5.207096576690674
0.6330533000873402,5.152918338775635,8.078484535217285,7.3668413162231445,2.981534242630005,10.914694786071777,10.120278358459473,9.166391372680664,2.4751250743865967,4.536924839019775
0.6413245000876486,6.618510723114014,8.118668556213379,6.992038249969482,2.5413427352905273,11.806506156921387,10.024184226989746,9.380544662475586,4.257733345031738,3.656200647354126
0.6454843999817967,8.173203468322754,8.151494979858398,6.45192813873291,2.237851858139038,12.61534309387207,9.879228591918945,9.68350887298584,6.167722702026367,2.6431915760040283
0.648882000008598,9.655369758605957,8.130409240722656,5.768361568450928,2.0536298751831055,13.257896423339844,9.661240577697754,10.051412582397461,8.055218696594238,1.5885145664215088
0.6521052999887615,10.857251167297363,7.976324081420898,4.963361740112305,1.9262021780014038,13.633715629577637,9.316771507263184,10.374098777770996,9.7247896194458,0.5850290060043335
0.6548021000344306,11.556262016296387,7.583470821380615,4.052992343902588,1.7559734582901,13.640493392944336,8.76862907409668,10.466876029968262,10.961692810058594,-0.2925691306591034
0.6574860999826342,11.546914100646973,6.83738899230957,3.054457426071167,1.4282288551330566,13.187652587890625,7.935221195220947,10.109365463256836,11.567665100097656,-0.9922798871994019
0.6604734000284225,10.695911407470703,5.6487579345703125,1.9953513145446777,0.8495591878890991,12.228434562683105,6.762680530548096,9.111955642700195,11.411911010742188,-1.4892899990081787
0.6630559000186622,8.984375953674316,3.9847023487091064,0.9107393026351929,-0.02171379141509533,10.779712677001953,5.249653339385986,7.3798441886901855,10.473560333251953,-1.7857590913772583
0.6660252000438049,6.537607192993164,1.9049534797668457,-0.13587500154972076,-1.1455681324005127,8.941286087036133,3.479914665222168,4.970845699310303,8.87368106842041,-1.8923453092575073
0.6690237000584602,3.6214168071746826,-0.4288504123687744,-1.0538848638534546,-2.3963634967803955,6.896071910858154,1.6261705160140991,2.1111721992492676,6.868217945098877,-1.8174588680267334
0.6720314000267535,0.6092698574066162,-2.771610975265503,-1.7384161949157715,-3.5862865447998047,4.889024257659912,-0.07363233715295792,-0.8372264504432678,4.806460857391357,-1.5660730600357056
0.6749527000356466,-2.081268072128296,-4.835505962371826,-2.0827250480651855,-4.5040974617004395,3.191645860671997,-1.3582547903060913,-3.4471261501312256,3.0649988651275635,-1.136284351348877
0.6779922000132501,-4.088082313537598,-6.3598175048828125,-2.011817216873169,-4.975677490234375,2.0374982357025146,-2.010817050933838,-5.331484794616699,1.9515043497085571,-0.5360956192016602
0.6810944000026211,-5.179816246032715,-7.174593925476074,-1.5123200416564941,-4.9120192527771,1.567840814590454,-1.9224028587341309,-6.240269184112549,1.6330761909484863,0.20569156110286713
0.683928000042215,-5.306100845336914,-7.2448811531066895,-0.6526588201522827,-4.33870267868042,1.7958768606185913,-1.13602614402771,-6.127292156219482,2.094963788986206,1.0269960165023804
0.6870862999930978,-4.613235950469971,-6.685491561889648,0.4164901375770569,-3.395174980163574,2.5940613746643066,0.1468568742275238,-5.168361663818359,3.1362435817718506,1.8320462703704834
0.6900712000206113,-3.3999698162078857,-5.7329583168029785,1.4843648672103882,-2.3025193214416504,3.7194135189056396,1.6010345220565796,-3.71999192237854,4.424816608428955,2.502378463745117
0.6929699000902474,-2.048041820526123,-4.696366786956787,2.312769651412964,-1.3159236907958984,4.862583637237549,2.836618423461914,-2.242420196533203,5.570303440093994,2.9119815826416016
0.695918400073424,-0.9389370083808899,-3.888720989227295,2.6870644092559814,-0.6694862842559814,5.7135443687438965,3.4843385219573975,-1.197087049484253,6.211122035980225,2.9521312713623047
0.6989554000319913,-0.3807160258293152,-3.567603349685669,2.4581096172332764,-0.5312892198562622,6.022809028625488,3.2699506282806396,-0.9533345699310303,6.084412097930908,2.551093101501465
0.7015876000514254,-0.5605438351631165,-3.892181634902954,1.5721251964569092,-0.9787795543670654,5.646984577178955,2.068408966064453,-1.7214257717132568,5.068989276885986,1.6891651153564453
0.7047454999992624,-1.524275541305542,-4.898987293243408,0.08548571914434433,-1.9872764348983765,4.573080062866211,-0.07132519036531448,-3.518219232559204,3.1958353519439697,0.41039609909057617
0.7074829000048339,-3.188711404800415,-6.506031036376953,-1.8464792966842651,-3.4432835578918457,2.9111621379852295,-2.941586494445801,-6.178609371185303,0.6264455318450928,-1.17702317237854
0.7107024000724778,-5.364160537719727,-8.530350685119629,-3.9951109886169434,-5.164052486419678,0.8736002445220947,-6.216782569885254,-9.391798973083496,-2.383150577545166,-2.9072558879852295
0.7129764000419527,-7.791749477386475,-10.719362258911133,-6.0951056480407715,-6.926459789276123,-1.2678282260894775,-9.512089729309082,-12.76016902923584,-5.527502059936523,-4.574188709259033
0.7159494999796152,-10.179248809814453,-12.7896089553833,-7.892925262451172,-8.499320983886719,-3.225200653076172,-12.45185661315918,-15.868315696716309,-8.4991455078125,-5.959417819976807
0.7189626999897882,-12.238444328308105,-14.470303535461426,-9.190492630004883,-9.677709579467773,-4.740263938903809,-14.731828689575195,-18.35068130493164,-11.028691291809082,-6.870975017547607
0.7220184000907466,-13.73779296875,-15.548893928527832,-9.87294864654541,-10.319205284118652,-5.633228778839111,-16.16295623779297,-19.94778060913086,-12.926016807556152,-7.178689002990723
0.7249875999987125,-14.531472206115723,-15.903824806213379,-9.924271583557129,-10.367210388183594,-5.82546854019165,-16.69061279296875,-20.539518356323242,-14.099454879760742,-6.845478534698486
0.7279218999901786,-14.59585952758789,-15.52728271484375,-9.424097061157227,-9.86469554901123,-5.3539934158325195,-16.391698837280273,-20.155717849731445,-14.569724082946777,-5.942694664001465
0.7309574000537395,-14.021825790405273,-14.515220642089844,-8.511674880981445,-8.938775062561035,-4.353299617767334,-15.43551254272461,-18.948345184326172,-14.449914932250977,-4.630434036254883
0.73341420001816,-12.99770736694336,-13.041512489318848,-7.346811294555664,-7.77059268951416,-3.0213775634765625,-14.03697395324707,-17.147085189819336,-13.917157173156738,-3.1205332279205322
0.7364171000663191,-11.748719215393066,-11.306161880493164,-6.060822010040283,-6.543798923492432,-1.5677053928375244,-12.39700698852539,-14.99534797668457,-13.159266471862793,-1.6180702447891235
0.7395436000078917,-10.472012519836426,-9.484930992126465,-4.728528022766113,-5.396393775939941,-0.1612236052751541,-10.659854888916016,-12.694608688354492,-12.327127456665039,-0.275517076253891
0.7424028000095859,-9.277098655700684,-7.69042444229126,-3.3573503494262695,-4.3860764503479,1.1079909801483154,-8.892051696777344,-10.369994163513184,-11.499491691589355,0.8454247117042542
0.7453800999792293,-8.162353515625,-5.960274696350098,-1.906746745109558,-3.485959053039551,2.236330270767212,-7.090827465057373,-8.06906509399414,-10.678457260131836,1.7753286361694336
0.7484772000461817,-7.038169860839844,-4.277924060821533,-0.3317449688911438,-2.6129140853881836,3.281069040298462,-5.220092296600342,-5.7909255027771,-9.812419891357422,2.6024463176727295
0.7513882000930607,-5.782235622406006,-2.6110353469848633,1.3780750036239624,-1.6739856004714966,4.316748142242432,-3.252812147140503,-3.5300745964050293,-8.83785343170166,3.4309563636779785
0.7539151000091806,-4.321236610412598,-0.9568130970001221,3.160632848739624,-0.622048020362854,5.378028392791748,-1.2139527797698975,-1.3209224939346313,-7.728145599365234,4.320613861083984
0.7569940000539646,-2.6907482147216797,0.6313045024871826,4.880090236663818,0.5108691453933716,6.425191879272461,0.8052852749824524,0.742087721824646,-6.523779392242432,5.257526397705078
0.7598666000412777,-1.0520377159118652,2.047438621520996,6.35407018661499,1.6111098527908325,7.3409199714660645,2.6588923931121826,2.519925117492676,-5.32745885848999,6.150640964508057
0.7628485000459477,0.34121036529541016,3.162506580352783,7.402657508850098,2.513664722442627,7.959186553955078,4.180507659912109,3.8679635524749756,-4.274534225463867,6.861766815185547
0.7658449000446126,1.2215908765792847,3.8703806400299072,7.89904260635376,3.054964542388916,8.124520301818848,5.230379581451416,4.685542583465576,-3.4879133701324463,7.2487993240356445
0.7688258000416681,1.396681547164917,4.130474090576172,7.805521011352539,3.127932548522949,7.7524027824401855,5.7338690757751465,4.957192897796631,-3.0361216068267822,7.211520195007324
0.7725439000641927,0.827864944934845,3.9903812408447266,7.181648254394531,2.720632791519165,6.872564315795898,5.702681064605713,4.7675018310546875,-2.9043967723846436,6.723564147949219
0.7748668000567704,-0.34159472584724426,3.580395460128784,6.16709041595459,1.9280589818954468,5.642951011657715,5.23232889175415,4.285813331604004,-2.9958856105804443,5.84251594543457
0.7780387999955565,-1.8284053802490234,3.07100248336792,4.935169219970703,0.9225630164146423,4.309726715087891,4.469244956970215,3.7142562866210938,-3.1711063385009766,4.688956260681152
0.7808020000811666,-3.2818362712860107,2.6228866577148438,3.649498701095581,-0.09286380559206009,3.1467344760894775,3.571911096572876,3.2339107990264893,-3.288754463195801,3.414475202560425
0.7832980999955907,-4.3850836753845215,2.339813470840454,2.431403160095215,-0.9393081665039062,2.380491018295288,2.6735241413116455,2.956793785095215,-3.2478067874908447,2.1666266918182373
0.7862811000086367,-4.927560806274414,2.2471060752868652,1.351901888847351,-1.5001500844955444,2.133904457092285,1.8615283966064453,2.9107165336608887,-3.0044641494750977,1.0659048557281494
0.7894022000255063,-4.847411155700684,2.296602249145508,0.4430103898048401,-1.7397555112838745,2.3971400260925293,1.1716598272323608,3.0483248233795166,-2.5712549686431885,0.1943424493074417
0.7923126000678167,-4.213813781738281,2.3996641635894775,-0.2773773968219757,-1.6924670934677124,3.049877405166626,0.6034992933273315,3.2819225788116455,-1.991667628288269,-0.4023932218551636
0.7954004000639543,-3.1958398818969727,2.4628987312316895,-0.7929549813270569,-1.4409921169281006,3.8911356925964355,0.1346576064825058,3.517789125442505,-1.321529507637024,-0.7097111940383911
0.7978976999875158,-1.992404818534851,2.4266128540039062,-1.0835152864456177,-1.0807656049728394,4.709274768829346,-0.26024582982063293,3.6890180110931396,-0.6022768020629883,-0.7383123636245728
0.8007724999915808,-0.7937349081039429,2.2752420902252197,-1.143096923828125,-0.7001584768295288,5.324792861938477,-0.6054514646530151,3.7576377391815186,0.13534829020500183,-0.5297152996063232
0.8033055000705644,0.2523053288459778,2.0381202697753906,-0.9944641590118408,-0.3611413836479187,5.63340425491333,-0.9185419082641602,3.712407350540161,0.8687682747840881,-0.1548725962638855
0.8064261000836268,1.0461151599884033,1.7656450271606445,-0.7099237442016602,-0.09935304522514343,5.611948490142822,-1.2192518711090088,3.5462496280670166,1.5686404705047607,0.28112921118736267
0.8092682000715286,1.5305018424987793,1.5062967538833618,-0.40790510177612305,0.0706934928894043,5.310774326324463,-1.5317695140838623,3.243968963623047,2.192441463470459,0.6504542827606201
0.8122933000558987,1.6793957948684692,1.2856744527816772,-0.23655639588832855,0.14776022732257843,4.825599670410156,-1.8889344930648804,2.7762019634246826,2.6845991611480713,0.8203099966049194
0.8154054000042379,1.5011533498764038,1.1021385192871094,-0.33193084597587585,0.13843248784542084,4.271023273468018,-2.32094669342041,2.1125428676605225,2.9951930046081543,0.6827569603919983
0.8182976000243798,1.0380182266235352,0.9336337447166443,-0.7795931696891785,0.05510381609201431,3.7545969486236572,-2.8480112552642822,1.239842414855957,3.094221591949463,0.18275582790374756
0.8216924000298604,0.3711763024330139,0.7561789155006409,-1.5723469257354736,-0.08095704764127731,3.359484910964966,-3.4591622352600098,0.18773557245731354,2.9940381050109863,-0.6517980098724365
0.8243825000245124,-0.3899618089199066,0.5567944645881653,-2.612370014190674,-0.24169860780239105,3.1300151348114014,-4.111812114715576,-0.970658540725708,2.744319200515747,-1.7145146131515503
0.827219600090757,-1.1136761903762817,0.3467400372028351,-3.7166671752929688,-0.3910392224788666,3.0791051387786865,-4.726631164550781,-2.119781732559204,2.431232213973999,-2.8294103145599365
0.830207800026983,-1.6887421607971191,0.15537776052951813,-4.664061546325684,-0.4961962103843689,3.1767771244049072,-5.20313835144043,-3.1314594745635986,2.1473140716552734,-3.7898459434509277
0.8336191000416875,-2.0469441413879395,0.01935586892068386,-5.2514495849609375,-0.5323092341423035,3.3669533729553223,-5.444807529449463,-3.896693706512451,1.96591055393219,-4.406800746917725
0.836183900013566,-2.1785740852355957,-0.031191617250442505,-5.343561172485352,-0.4888072907924652,3.574127435684204,-5.382193088531494,-4.352901935577393,1.9235814809799194,-4.554697036743164
0.8392984999809414,-2.125980854034424,0.018342824652791023,-4.904772758483887,-0.3672398328781128,3.7279601097106934,-4.9953694343566895,-4.496385097503662,2.014676809310913,-4.19589900970459
0.8421717000892386,-1.9835840463638306,0.15495018661022186,-4.012392520904541,-0.18322527408599854,3.766826868057251,-4.326844215393066,-4.384401798248291,2.1848583221435547,-3.395087480545044
0.8519050000468269,-1.8476520776748657,0.34773561358451843,-2.8306660652160645,0.04702654853463173,3.6633598804473877,-3.472071647644043,-4.109329700469971,2.3595495223999023,-2.2937636375427246
0.8558843000791967,-1.7867401838302612,0.554132878780365,-1.5819679498672485,0.30997613072395325,3.432560920715332,-2.5627100467681885,-3.77067232131958,2.4648919105529785,-1.0830076932907104
0.8582462000194937,-1.8271039724349976,0.7324492931365967,-0.48414677381515503,0.5998085737228394,3.122349262237549,-1.734209656715393,-3.45214581489563,2.4399986267089844,0.050001997500658035
0.8612984000938013,-1.9372448921203613,0.8529049158096313,0.2928905785083771,0.9163588881492615,2.8080556392669678,-1.0912892818450928,-3.197467088699341,2.262511730194092,0.9579656720161438
0.8636695999884978,-2.0500409603118896,0.8967206478118896,0.6529276967048645,1.2539209127426147,2.567659616470337,-0.690224289894104,-3.013625144958496,1.9440923929214478,1.5484516620635986
0.8669964000582695,-2.084930658340454,0.8577573299407959,0.5931302309036255,1.5961196422576904,2.4615590572357178,-0.5255760550498962,-2.8779101371765137,1.5288220643997192,1.796643614768982
0.8696157999802381,-1.9847379922866821,0.7328563928604126,0.1860049068927765,1.9079575538635254,2.5116260051727295,-0.5429019927978516,-2.7598958015441895,1.074362874031067,1.7256273031234741
0.8736232999945059,-1.7336504459381104,0.5213809013366699,-0.44025516510009766,2.1424367427825928,2.6967241764068604,-0.6542531847953796,-2.6335368156433105,0.6416748762130737,1.3926124572753906
0.8766534000169486,-1.3692524433135986,0.2221924513578415,-1.1367579698562622,2.2521705627441406,2.9556236267089844,-0.7672623991966248,-2.4878783226013184,0.27984490990638733,0.8688346147537231
0.879713200032711,-0.9719191193580627,-0.1596764773130417,-1.7607531547546387,2.2094359397888184,3.205289363861084,-0.8026321530342102,-2.322692394256592,0.01923828013241291,0.2316390872001648
0.8826301000081003,-0.6454901695251465,-0.6042851805686951,-2.195146322250366,2.0249407291412354,3.3655054569244385,-0.7052425742149353,-2.1366653442382812,-0.13026802241802216,-0.43406328558921814
0.8855727000627667,-0.480618953704834,-1.0680502653121948,-2.3585429191589355,1.757703185081482,3.383763551712036,-0.4457089602947235,-1.9130159616470337,-0.1706380695104599,-1.0329569578170776
0.8891024000477046,-0.5303690433502197,-1.4860005378723145,-2.211264133453369,1.505171775817871,3.248006582260132,-0.017862986773252487,-1.6158149242401123,-0.11277088522911072,-1.4628163576126099
0.8916228000307456,-0.7855390906333923,-1.7783554792404175,-1.753408432006836,1.3813133239746094,2.994192600250244,0.5688332319259644,-1.1925331354141235,0.0351744070649147,-1.6256616115570068
0.8940733000636101,-1.1738898754119873,-1.8687937259674072,-1.027030110359192,1.480979323387146,2.6948626041412354,1.2894505262374878,-0.5932580232620239,0.2663581073284149,-1.452012062072754
0.8970968000357971,-1.5697274208068848,-1.705043911933899,-0.11302977800369263,1.845090389251709,2.436246395111084,2.1044392585754395,0.2086639702320099,0.579342246055603,-0.9244686365127563
0.900066600064747,-1.8227174282073975,-1.2768268585205078,0.8747333884239197,2.44108510017395,2.296344757080078,2.9557831287384033,1.1946009397506714,0.9705527424812317,-0.09377928078174591
0.9030485000694171,-1.79918372631073,-0.6253669261932373,1.8007228374481201,3.161404848098755,2.3183343410491943,3.7664072513580322,2.2901387214660645,1.4242106676101685,0.9224786162376404
0.906110699987039,-1.411002278327942,0.16269125044345856,2.5279505252838135,3.8507654666900635,2.5024218559265137,4.445285797119141,3.371978759765625,1.9095368385314941,1.961618423461914
0.9090817000251263,-0.6536436080932617,0.9677901268005371,2.9394052028656006,4.341491222381592,2.794435977935791,4.897154331207275,4.2869648933410645,2.36897349357605,2.853104829788208
0.9122276999987662,0.3938940167427063,1.6653779745101929,2.9588074684143066,4.501918315887451,3.107299566268921,5.036723613739014,4.88461971282959,2.725943088531494,3.456796169281006
0.9152347000781447,1.577972650527954,2.1498026847839355,2.5668578147888184,4.270031929016113,3.3375144004821777,4.8050537109375,5.049517631530762,2.892155408859253,3.697964906692505
0.9180218999972567,2.707847833633423,2.3565311431884766,1.8049895763397217,3.668823719024658,3.397991895675659,4.181070804595947,4.727955341339111,2.7864890098571777,3.5786049365997314
0.9213502000784501,3.5974903106689453,2.271120548248291,0.7655826807022095,2.797126054763794,3.2400007247924805,3.1882784366607666,3.9412648677825928,2.3557698726654053,3.16634202003479
0.9241130000445992,4.115758419036865,1.9322826862335205,-0.4207666218280792,1.8032329082489014,2.8723597526550293,1.8974798917770386,2.786317825317383,1.5984398126602173,2.5721092224121094
0.9270164000336081,4.22047233581543,1.421317219734192,-1.609481930732727,0.8483268618583679,2.365736961364746,0.4169877767562866,1.4194424152374268,0.5769533514976501,1.9193637371063232
0.9299785000039265,3.9638593196868896,0.8465284705162048,-2.6572108268737793,0.07164039462804794,1.835322380065918,-1.1117488145828247,0.03428765758872032,-0.5810188055038452,1.3164011240005493
0.9329828000627458,3.4694957733154297,0.32277819514274597,-3.4437458515167236,-0.437052458524704,1.407478928565979,-2.535374164581299,-1.1735923290252686,-1.7067862749099731,0.8381357192993164
0.935958500020206,2.8957502841949463,-0.04930970445275307,-3.8883755207061768,-0.6476656794548035,1.1878405809402466,-3.7131845951080322,-2.0363006591796875,-2.618849277496338,0.5242217779159546
0.9390302000101656,2.377005100250244,-0.20200195908546448,-3.9618659019470215,-0.5895890593528748,1.2199957370758057,-4.5405659675598145,-2.4474575519561768,-3.171856164932251,0.3759925663471222
0.9419599000830203,1.9930055141448975,-0.10949390381574631,-3.6910970211029053,-0.3381288945674896,1.4739781618118286,-4.9664835929870605,-2.3794076442718506,-3.2868123054504395,0.36595869064331055
0.9451409000903368,1.7500287294387817,0.20931357145309448,-3.1534807682037354,0.006146169733256102,1.8503800630569458,-5.004148006439209,-1.8884705305099487,-2.9716737270355225,0.4481653869152069
0.9479674000758678,1.596168041229248,0.6972237229347229,-2.46437406539917,0.33819687366485596,2.2121236324310303,-4.724578857421875,-1.1035057306289673,-2.3172519207000732,0.5659962892532349
0.9509256000164896,1.4508016109466553,1.2702387571334839,-1.7531764507293701,0.567505955696106,2.423607349395752,-4.237890720367432,-0.20211203396320343,-1.4724464416503906,0.6624785661697388
0.953960100072436,1.255042552947998,1.8373442888259888,-1.1350454092025757,0.6363602876663208,2.401444435119629,-3.662606954574585,0.6297039985656738,-0.5990694761276245,0.6921138763427734
0.9569586000870913,0.9938163161277771,2.313638210296631,-0.6897193193435669,0.5243933796882629,2.135464668273926,-3.098482608795166,1.232627272605896,0.1653403639793396,0.627521812915802
0.9602334999945015,0.699850857257843,2.6326470375061035,-0.444526731967926,0.24960891902446747,1.6895709037780762,-2.6037793159484863,1.504718542098999,0.7349672317504883,0.46717849373817444
0.9626056000124663,0.43869879841804504,2.753260612487793,-0.3785300850868225,-0.1412276029586792,1.1757179498672485,-2.1926145553588867,1.4162712097167969,1.0874319076538086,0.23222963511943817
0.9655589000321925,0.263971745967865,2.6574621200561523,-0.44232094287872314,-0.5903167128562927,0.7087650299072266,-1.8484944105148315,1.0060864686965942,1.2491002082824707,-0.04355856776237488
0.9685272000497207,0.05617328733205795,7.5371785163879395,1.1127073764801025,5.078535556793213,4.046197891235352,-0.37572458386421204,6.712674140930176,-2.71252179145813,3.465057611465454
0.9729234999977052,1.498106837272644,8.827906608581543,2.7700552940368652,6.286099433898926,5.001105785369873,2.0027740001678467,7.730112075805664,-1.9299830198287964,5.06038761138916
0.9758763000136241,2.952242136001587,10.000983238220215,4.203039169311523,7.3578267097473145,5.8766045570373535,4.150564193725586,8.508143424987793,-1.0649577379226685,6.474299430847168
0.9787068000296131,4.064880847930908,10.900611877441406,5.250473976135254,8.096092224121094,6.461695671081543,5.909844398498535,8.985174179077148,-0.2544594705104828,7.4986653327941895
0.9816663999808952,4.539731025695801,11.372038841247559,5.799432754516602,8.334063529968262,6.581235408782959,7.178001403808594,9.103510856628418,0.36252257227897644,7.966648578643799
0.9843017000239342,4.226057529449463,11.301229476928711,5.817622184753418,7.981513500213623,6.145801067352295,7.930291652679443,8.82746696472168,0.6837742924690247,7.800714015960693
0.9879019000800326,3.1639347076416016,10.64851188659668,5.366467475891113,7.054720401763916,5.181527614593506,8.225589752197266,8.162705421447754,0.6750137805938721,7.040727615356445
0.9911001999862492,1.586714744567871,9.46899700164795,4.594271659851074,5.6814093589782715,3.8387842178344727,8.193119049072266,7.170314788818359,0.3883499503135681,5.844295024871826
0.9938776000635698,-0.14762476086616516,7.901352405548096,3.6900789737701416,4.069962024688721,2.349400043487549,7.989080429077148,5.95526123046875,-0.057912763208150864,4.43988561630249
0.9969091999810189,-1.6444655656814575,6.144275665283203,2.849196434020996,2.4655020236968994,0.9777835607528687,7.766541957855225,4.658627510070801,-0.4980669319629669,3.0821192264556885
0.9997858999995515,-2.5681493282318115,4.4168782234191895,2.2332472801208496,1.0978820323944092,-0.03897630423307419,7.643220901489258,3.4353394508361816,-0.7572358846664429,1.9952260255813599
1.0027593000559136,-2.731022834777832,2.913458824157715,1.9452743530273438,0.13372236490249634,-0.5539345741271973,7.686595439910889,2.4289422035217285,-0.6931936144828796,1.32992684841156
1.0059098000638187,-2.1212868690490723,1.7734848260879517,2.0285186767578125,-0.34672385454177856,-0.5305700898170471,7.917234897613525,1.7554532289505005,-0.2204267978668213,1.1506398916244507
1.0087827000534162,-0.884619951248169,1.068496823310852,2.481956720352173,-0.35113927721977234,-0.03828205540776253,8.328797340393066,1.492610216140747,0.6796910166740417,1.4457260370254517
1.0119731000158936,0.728601336479187,0.8046528100967407,3.282639741897583,0.04381301626563072,0.7731339931488037,8.908243179321289,1.6776349544525146,1.9635502099990845,2.1553335189819336
1.014782499987632,2.44262957572937,0.9376348853111267,4.39441442489624,0.7198835611343384,1.7285600900650024,9.647286415100098,2.3058576583862305,3.54137921333313,3.1928157806396484
1.017996000009589,4.01926851272583,1.3927679061889648,5.775357723236084,1.5460326671600342,2.6647746562957764,10.542291641235352,3.329537868499756,5.289138317108154,4.467473983764648
1.0221913000568748,5.301361083984375,2.0789566040039062,7.360182285308838,2.396606922149658,3.4584484100341797,11.576579093933105,4.654724597930908,7.061405181884766,5.878442287445068
1.024778800085187,6.215261936187744,2.8939249515533447,9.03780746459961,3.1586246490478516,4.033721923828125,12.698860168457031,6.140821933746338,8.700057983398438,7.3017578125
1.0277137000812218,6.747776508331299,3.724149703979492,10.636435508728027,3.7318155765533447,4.347552299499512,13.805212020874023,7.606117248535156,10.038678169250488,8.580937385559082
1.030845700064674,6.925900936126709,4.448394298553467,11.9356107711792,4.029776573181152,4.380945205688477,14.743124961853027,8.848695755004883,10.922615051269531,9.532520294189453
1.0332025000825524,6.7856059074401855,4.941598415374756,12.695821762084961,3.9817137718200684,4.125072479248047,15.328174591064453,9.674208641052246,11.225192070007324,9.97368335723877
1.0362253000494093,6.357602596282959,5.0908002853393555,12.717087745666504,3.5396535396575928,3.577378749847412,15.387434959411621,9.932676315307617,10.873785018920898,9.762155532836914
1.0392741999821737,5.679460048675537,4.817627906799316,11.894400596618652,2.6920995712280273,2.7561166286468506,14.801308631896973,9.551698684692383,9.876602172851562,8.845663070678711
1.0421831000130624,4.796934127807617,4.095061302185059,10.25415325164795,1.4708374738693237,1.7058038711547852,13.531265258789062,8.551142692565918,8.328487396240234,7.289307117462158
1.0452478000661358,3.779001474380493,2.9642269611358643,7.971004486083984,-0.0439787395298481,0.5083630084991455,11.640830993652344,7.043167591094971,6.406254291534424,5.277401924133301
1.0482979000080377,2.6961514949798584,1.5258300304412842,5.329239368438721,-1.7355111837387085,-0.7357689142227173,9.280767440795898,5.202960014343262,4.33035135269165,3.072960376739502
1.0511480000568554,1.6235098838806152,-0.07440369576215744,2.6590240001678467,-3.464447498321533,-1.9158353805541992,6.653485298156738,3.2304985523223877,2.327681541442871,0.958165168762207
1.0541679000016302,0.6077147126197815,-1.678523302078247,0.2585386633872986,-5.094028472900391,-2.9461755752563477,3.9693496227264404,1.306980013847351,0.5792235136032104,-0.8359987735748291
1.0572771000443026,-0.3426060676574707,-3.145098924636841,-1.673865556716919,-6.510897159576416,-3.783895969390869,1.4060192108154297,-0.4374871850013733,-0.8131329417228699,-2.181868076324463
1.0601782000157982,-1.2455260753631592,-4.369736194610596,-3.069932460784912,-7.6342010498046875,-4.429628372192383,-0.9138782024383545,-1.9311555624008179,-1.8283785581588745,-3.0701851844787598
1.063164500053972,-2.127065896987915,-5.2959513664245605,-3.989492177963257,-8.422624588012695,-4.917524337768555,-2.9334781169891357,-3.156754732131958,-2.514085531234741,-3.5902295112609863
1.0660550000611693,-2.9943349361419678,-5.908981800079346,-4.575283527374268,-8.868375778198242,-5.2912445068359375,-4.648190021514893,-4.127185344696045,-2.951990842819214,-3.879044532775879
1.0690515000605956,-3.811279296875,-6.22222900390625,-4.996340274810791,-8.987669944763184,-5.576193809509277,-6.088902473449707,-4.861759185791016,-3.2199389934539795,-4.065616607666016
1.0722491000778973,-4.498211860656738,-6.264796257019043,-5.393301010131836,-8.812966346740723,-5.766185760498047,-7.303555488586426,-5.370655059814453,-3.369513988494873,-4.229343414306641
1.0750430000480264,-4.94854211807251,-6.068775177001953,-5.838839054107666,-8.383973121643066,-5.819732189178467,-8.33995532989502,-5.649994850158691,-3.418739080429077,-4.379814624786377
1.078017899999395,-5.064888954162598,-5.668856143951416,-6.334638595581055,-7.747513294219971,-5.680212020874023,-9.239078521728516,-5.690555095672607,-3.364292621612549,-4.474032878875732
1.0810533000621945,-4.799662113189697,-5.102841854095459,-6.824249267578125,-6.955166816711426,-5.302608489990234,-10.027539253234863,-5.4913249015808105,-3.204627275466919,-4.445920467376709
1.084052300080657,-4.170465469360352,-4.413567543029785,-7.231987476348877,-6.062675952911377,-4.671189308166504,-10.714217185974121,-5.069196701049805,-2.9523367881774902,-4.252287864685059
1.0870104000205174,-3.2702717781066895,-3.6526668071746826,-7.49620246887207,-5.129043102264404,-3.8220205307006836,-11.289929389953613,-4.4665446281433105,-2.6457083225250244,-3.9000837802886963
1.090049699996598,-2.243195056915283,-2.8736884593963623,-7.590450286865234,-4.209568500518799,-2.8382139205932617,-11.723706245422363,-3.746697187423706,-2.3394148349761963,-3.4530985355377197
1.0925842000870034,-1.241830825805664,-2.1208274364471436,-7.52586555480957,-3.3469479084014893,-1.8298064470291138,-11.964290618896484,-2.978954792022705,-2.0858047008514404,-3.011676073074341
1.0955928000621498,-0.39188000559806824,-1.4251116514205933,-7.346497535705566,-2.56813383102417,-0.9111476540565491,-11.955657958984375,-2.2327287197113037,-1.919237494468689,-2.6871840953826904
1.09856850001961,0.2335357367992401,-0.7978660464286804,-7.100959300994873,-1.878778100013733,-0.1744539886713028,-11.64879035949707,-1.5656585693359375,-1.846329927444458,-2.554722785949707
1.1015387000516057,0.6150398850440979,-0.23720280826091766,-6.82770299911499,-1.2688275575637817,0.3246871531009674,-11.023577690124512,-1.0231385231018066,-1.852766752243042,-2.63448429107666
1.104884700034745,0.7656422257423401,0.26010483503341675,-6.5443339347839355,-0.7231552004814148,0.5666228532791138,-10.106403350830078,-0.6465848684310913,-1.9244168996810913,-2.8866443634033203
1.107588000013493,0.7148950099945068,0.6906147003173828,-6.243137836456299,-0.22846649587154388,0.569132387638092,-8.96670913696289,-0.46899065375328064,-2.055889129638672,-3.2176809310913086
1.1105521999998018,0.49055126309394836,1.035451889038086,-5.90571403503418,0.21466046571731567,0.37475845217704773,-7.711928367614746,-0.5188947319984436,-2.26308012008667,-3.5180022716522217
1.113265100051649,0.11611711233854294,1.2617841958999634,-5.519940376281738,0.5882447361946106,0.04105224087834358,-6.466039657592773,-0.8156684041023254,-2.5790762901306152,-3.6977651119232178
1.1162872000131756,-0.3834015727043152,1.3331071138381958,-5.0912861824035645,0.8597849607467651,-0.367460697889328,-5.340386867523193,-1.3589999675750732,-3.0382535457611084,-3.712550640106201
1.1193108999868855,-0.9554874897003174,1.2272323369979858,-4.647589683532715,0.9939752817153931,-0.7779962420463562,-4.409907817840576,-2.11948299407959,-3.6520285606384277,-3.5746850967407227
1.1223614000482485,-1.5114710330963135,0.9491862654685974,-4.232783317565918,0.9652960896492004,-1.1152008771896362,-3.7008442878723145,-3.033630609512329,-4.391831398010254,-3.3454201221466064
1.1252236000727862,-1.9397157430648804,0.5427835583686829,-3.884589195251465,0.7735278010368347,-1.30747389793396,-3.1857945919036865,-4.007243633270264,-5.188045978546143,-3.1030189990997314
1.128222200088203,-2.1299960613250732,0.08325942605733871,-3.619210958480835,0.44968506693840027,-1.3018698692321777,-2.8011441230773926,-4.931623458862305,-5.947791576385498,-2.9137425422668457
1.1313422999810427,-2.0083110332489014,-0.33535152673721313,-3.4173898696899414,0.05544435232877731,-1.075329065322876,-2.4628446102142334,-5.700369358062744,-6.572133541107178,-2.8012681007385254
1.1339414999820292,-1.5765423774719238,-0.6242438554763794,-3.219343900680542,-0.32862526178359985,-0.6505861878395081,-2.0907142162323,-6.230823516845703,-6.987887382507324,-2.7322816848754883
1.1369641000637785,-0.9227861762046814,-0.7225245833396912,-2.941086530685425,-0.6218247413635254,-0.09656236320734024,-1.6283502578735352,-6.482449531555176,-7.166198253631592,-2.6280646324157715
1.1400364000583068,-0.20392781496047974,-0.611364483833313,-2.4979896545410156,-0.762380838394165,0.48110267519950867,-1.0543056726455688,-6.46197509765625,-7.125276565551758,-2.389939069747925
1.1429112000623718,0.3933132290840149,-0.31945285201072693,-1.8343631029129028,-0.7245826721191406,0.9643419981002808,-0.38635778427124023,-6.218894004821777,-6.920377254486084,-1.9375238418579102
1.1459156000055373,0.709527313709259,0.0863656997680664,-0.9443473219871521,-0.5238005518913269,1.2552224397659302,0.32075396180152893,-5.831389904022217,-6.62244987487793,-1.2368967533111572
1.1489020000444725,0.6491705179214478,0.5133562684059143,0.11606553941965103,-0.2167091965675354,1.295561671257019,0.9881406426429749,-5.389327049255371,-6.303635597229004,-0.324647456407547
1.1519038000842556,0.21070076525211334,0.8653698563575745,1.2448945045471191,0.11375591903924942,1.0871577262878418,1.5332262516021729,-4.972115516662598,-6.017716407775879,0.6991196870803833
1.1553968000225723,-0.5303987264633179,1.056968331336975,2.31644606590271,0.37455928325653076,0.680798351764679,1.8901960849761963,-4.638388633728027,-5.801945686340332,1.6913154125213623
1.1579022000078112,-1.4546735286712646,1.0237277746200562,3.208763837814331,0.48148855566978455,0.1558750718832016,2.029500961303711,-4.420346736907959,-5.680949687957764,2.4960153102874756
1.1608840000117198,-2.437861680984497,0.7278828620910645,3.8369035720825195,0.37549924850463867,-0.40587589144706726,1.9737024307250977,-4.324196815490723,-5.67008113861084,2.984445810317993
1.163457400049083,-3.393801689147949,0.1578495353460312,4.167202472686768,0.030121920630335808,-0.9517046213150024,1.7961505651474,-4.339550018310547,-5.783942699432373,3.0807974338531494
1.1663691999856383,-4.277331352233887,-0.6677379608154297,4.226774215698242,-0.5411679744720459,-1.4621481895446777,1.6132417917251587,-4.441413402557373,-6.027009963989258,2.7829749584198
1.169368900009431,-5.084127426147461,-1.7045589685440063,4.090050220489502,-1.292147159576416,-1.9534727334976196,1.5527719259262085,-4.599906921386719,-6.3909101486206055,2.1586732864379883
1.1724441000260413,-5.830769062042236,-2.8840279579162598,3.85097074508667,-2.1542792320251465,-2.463533639907837,1.7144265174865723,-4.785323143005371,-6.848504066467285,1.3276515007019043
1.175432600080967,-6.521232604980469,-4.115323066711426,3.5987629890441895,-3.047391414642334,-3.0246851444244385,2.1375114917755127,-4.966701507568359,-7.347195625305176,0.43544504046440125
1.1784098000498489,-7.134099960327148,-5.293754577636719,3.3959591388702393,-3.892098903656006,-3.6461594104766846,2.7795345783233643,-5.114439487457275,-7.814907073974609,-0.37254905700683594
1.181552099995315,-7.618313312530518,-6.311371326446533,3.2634177207946777,-4.61911678314209,-4.300976276397705,3.5190722942352295,-5.2001633644104,-8.170252799987793,-0.979157567024231
1.1840650000376627,-7.905041694641113,-7.072635650634766,3.1818923950195312,-5.176577568054199,-4.929007530212402,4.182803630828857,-5.199784278869629,-8.3375883102417,-1.3147947788238525
1.187143300077878,-7.924400806427002,-7.508929252624512,3.106707811355591,-5.53078556060791,-5.447763919830322,4.592103958129883,-5.09617805480957,-8.260031700134277,-1.3618402481079102
1.1910493000177667,-7.623238563537598,-7.58991813659668,2.9910130500793457,-5.665520668029785,-5.767701625823975,4.613542556762695,-4.882941722869873,-7.909285068511963,-1.1491637229919434
1.1941762000788003,-6.980101108551025,-7.330402851104736,2.803403615951538,-5.581516265869141,-5.811635494232178,4.197432994842529,-4.565347671508789,-7.290938377380371,-0.7450977563858032
1.1970256000058725,-6.013057231903076,-6.789059162139893,2.5428943634033203,-5.294766426086426,-5.53206729888916,3.3917717933654785,-4.160650730133057,-6.442866325378418,-0.2391911894083023
1.2000146000646055,-4.774253845214844,-6.0526204109191895,2.244659185409546,-4.832854270935059,-4.9185991287231445,2.334092140197754,-3.687976121902466,-5.421250343322754,0.27834829688072205
1.2030050000175834,-3.3484933376312256,-5.22287654876709,1.9599239826202393,-4.236594200134277,-4.005931854248047,1.2076005935668945,-3.164423704147339,-4.293946266174316,0.7234474420547485
1.2060511000454426,-1.8444644212722778,-4.395785331726074,1.737871766090393,-3.5565497875213623,-2.8726961612701416,0.19185997545719147,-2.597132921218872,-3.1270060539245605,1.029197096824646
1.2089786999858916,-0.3785454332828522,-3.6403744220733643,1.6091656684875488,-2.8446178436279297,-1.629027247428894,-0.5787639021873474,-1.9751862287521362,-1.9681668281555176,1.15657639503479
1.2119772000005469,0.9410408139228821,-2.987095355987549,1.5706477165222168,-2.1463465690612793,-0.3976198732852936,-1.04533052444458,-1.270632028579712,-0.8423476815223694,1.0926545858383179
1.2149717999855056,2.0342955589294434,-2.424931049346924,1.589282512664795,-1.4910556077957153,0.7084818482398987,-1.2257996797561646,-0.44584470987319946,0.25304850935935974,0.8545399308204651
1.217528900015168,2.8614137172698975,-1.9082703590393066,1.6121833324432373,-0.8860971331596375,1.6080445051193237,-1.197442650794983,0.5362474322319031,1.342103123664856,0.48149314522743225
1.2205526999896392,3.435009717941284,-1.3723907470703125,1.5898635387420654,-0.3141796588897705,2.2713866233825684,-1.06217360496521,1.696208119392395,2.459362745285034,0.03235675394535065
1.22330489999149,3.8150410652160645,-0.7524498701095581,1.4947199821472168,0.26037490367889404,2.7249248027801514,-0.9112526774406433,3.0263311862945557,3.632972002029419,-0.426128089427948
1.228400000021793,4.0847320556640625,-0.0036550313234329224,1.3306000232696533,0.8790978193283081,3.0374608039855957,-0.7988630533218384,4.483617305755615,4.864193439483643,-0.8292016983032227
1.2311059000203386,4.345168113708496,0.8878293037414551,1.1272681951522827,1.5767745971679688,3.3090198040008545,-0.7336509823799133,5.994288921356201,6.126373767852783,-1.1282625198364258
1.2335391000378877,4.680540561676025,1.8993306159973145,0.9275244474411011,2.3664941787719727,3.635924816131592,-0.6864266395568848,7.462801933288574,7.360168933868408,-1.2975010871887207
1.2365139999892563,5.144101142883301,2.9777629375457764,0.7707928419113159,3.233611583709717,4.0861496925354,-0.607306957244873,8.789483070373535,8.485515594482422,-1.336472511291504
1.2396100000478327,5.75545072555542,4.049846172332764,0.6699265837669373,4.1335954666137695,4.6843132972717285,-0.4543217420578003,9.88692569732666,9.421392440795898,-1.271301507949829
1.2425274000270292,6.497333526611328,5.0373077392578125,0.611240029335022,4.997673988342285,5.398733615875244,-0.20865008234977722,10.695296287536621,10.10767936706543,-1.1448099613189697
1.2456292000133544,7.332869529724121,5.873472213745117,0.5609552264213562,5.749683856964111,6.160254001617432,0.11755505204200745,11.190768241882324,10.520997047424316,-1.002206802368164
1.2485236000502482,8.200447082519531,6.508066177368164,0.4806288480758667,6.316023349761963,6.870503902435303,0.48446816205978394,11.382951736450195,10.674931526184082,-0.8796218037605286
1.2515339000383392,9.019814491271973,6.912091255187988,0.3460291624069214,6.639028549194336,7.421692371368408,0.8416785001754761,11.307356834411621,10.613012313842773,-0.7954050302505493
1.2545344000682235,9.704697608947754,7.080391883850098,0.1626109927892685,6.690914154052734,7.727665424346924,1.1497589349746704,11.01766586303711,10.397161483764648,-0.7424682974815369
1.2575076000066474,10.162328720092773,7.028822898864746,-0.027478821575641632,6.478732585906982,7.735243320465088,1.398280382156372,10.573698043823242,10.085295677185059,-0.6861511468887329
1.2604704999830574,10.315081596374512,6.794942378997803,-0.14922738075256348,6.048335075378418,7.441953182220459,1.6206971406936646,10.036999702453613,9.721053123474121,-0.5700668692588806
1.2629878000589088,10.1222505569458,6.434510707855225,-0.11413755267858505,5.481396198272705,6.898675918579102,1.8865183591842651,9.466109275817871,9.330389022827148,-0.32632485032081604
1.2659809000324458,9.598654747009277,6.017337322235107,0.15867531299591064,4.884688854217529,6.205704689025879,2.28399658203125,8.91351318359375,8.926024436950684,0.10987929999828339
1.2689493000507355,8.817475318908691,5.613185882568359,0.715590238571167,4.369663715362549,5.489246368408203,2.888976573944092,8.417511940002441,8.509011268615723,0.7736218571662903
1.2720392000628635,7.898313999176025,5.276060104370117,1.5498361587524414,4.027462959289551,4.871098518371582,3.7321536540985107,7.994307518005371,8.07418441772461,1.6526519060134888
1.2749489999841899,6.97184419631958,5.020506381988525,2.5827713012695312,3.900202512741089,4.435470104217529,4.764036655426025,7.621750831604004,7.60242223739624,2.665452241897583
1.277924600057304,6.133731365203857,4.805848121643066,3.66481614112854,3.9628303050994873,4.197844505310059,5.844018459320068,7.232795238494873,7.0530009269714355,3.66219425201416
1.2809454000089318,5.400976181030273,4.530649662017822,4.593807220458984,4.1177754402160645,4.091140270233154,6.754533290863037,6.714615821838379,6.354026794433594,4.442574501037598
1.2839227999793366,4.700748443603516,4.047493934631348,5.137702941894531,4.209706783294678,3.9797441959381104,7.233996868133545,5.923727035522461,5.405857563018799,4.783009052276611
1.2871360999997705,3.8806087970733643,3.1962082386016846,5.0890727043151855,4.062128067016602,3.6877176761627197,7.039421081542969,4.717489719390869,4.095468997955322,4.493517875671387
1.2900328000541776,2.763927936553955,1.8561592102050781,4.314450263977051,3.527609348297119,3.0570716857910156,6.012810230255127,2.9982962608337402,2.3311941623687744,3.471571207046509
1.2924884000094607,1.2203006744384766,-0.0033267049584537745,2.800029754638672,2.536586284637451,2.000054121017456,4.137809753417969,0.7575235366821289,0.08785679191350937,1.7428851127624512
1.295494900085032,-0.7732684016227722,-2.290119171142578,0.6771153807640076,1.1290467977523804,0.5360891819000244,1.5674055814743042,-1.897968053817749,-2.559882879257202,-0.5237088203430176
1.2984838000265881,-3.0974032878875732,-4.784056663513184,-1.782055139541626,-0.5415111780166626,-1.1999471187591553,-1.3886438608169556,-4.7450032234191895,-5.421265125274658,-3.0301010608673096
1.301037700031884,-5.500967502593994,-7.171801567077637,-4.2086920738220215,-2.2376692295074463,-2.9806909561157227,-4.320082664489746,-7.477744102478027,-8.207463264465332,-5.402134418487549
1.3041736000450328,-7.666838645935059,-9.115026473999023,-6.210771560668945,-3.6951699256896973,-4.5492353439331055,-6.802310943603516,-9.771614074707031,-10.587607383728027,-7.2657551765441895
1.307056299992837,-9.28613567352295,-10.330239295959473,-7.464797496795654,-4.690247535705566,-5.678633213043213,-8.495047569274902,-11.35720157623291,-12.256583213806152,-8.329365730285645
1.3100435000378639,-10.156084060668945,-10.664912223815918,-7.792324066162109,-5.099352836608887,-6.240250587463379,-9.219640731811523,-12.089838027954102,-13.018275260925293,-8.4457368850708
1.3131765000289306,-10.226573944091797,-10.135811805725098,-7.208800792694092,-4.928440570831299,-6.226057052612305,-8.996997833251953,-11.98279857635498,-12.8346529006958,-7.645566940307617
1.3161451000487432,-9.612658500671387,-8.927180290222168,-5.9197258949279785,-4.308706283569336,-5.749693393707275,-8.03182601928711,-11.202679634094238,-11.838306427001953,-6.128724098205566
1.3191461000824347,-8.561330795288086,-7.342639446258545,-4.268427848815918,-3.45758056640625,-5.010970592498779,-6.650529861450195,-10.023070335388184,-10.30457592010498,-4.2142839431762695
1.3223123999778181,-7.3709330558776855,-5.723765850067139,-2.6454079151153564,-2.6158273220062256,-4.233318328857422,-5.207574844360352,-8.748287200927734,-8.580656051635742,-2.26538348197937
1.3251402000896633,-6.308088302612305,-4.364206790924072,-1.386017084121704,-1.985151767730713,-3.6061582565307617,-3.9922993183135986,-7.633724689483643,-6.997978210449219,-0.6074191927909851
1.32811980007682,-5.550282001495361,-3.4442551136016846,-0.6904287934303284,-1.681087613105774,-3.2450506687164307,-3.1629881858825684,-6.827005386352539,-5.801461696624756,0.5369846820831299
1.3311229000100866,-5.1423659324646,-2.9990200996398926,-0.5857434868812561,-1.713216781616211,-3.1675291061401367,-2.7266669273376465,-6.343559265136719,-5.095517158508301,1.0847129821777344
1.333777700085193,-5.0153279304504395,-2.9304206371307373,-0.9330198168754578,-1.9962571859359741,-3.3092920780181885,-2.5601282119750977,-6.081629276275635,-4.842278480529785,1.096337080001831
1.3367561000632122,-5.030844211578369,-3.0548160076141357,-1.4860656261444092,-2.385378360748291,-3.560028314590454,-2.4712612628936768,-5.870151519775391,-4.8925275802612305,0.743278443813324
1.33977170009166,-5.028773784637451,-3.1639389991760254,-1.969905972480774,-2.718855142593384,-3.7956833839416504,-2.2677414417266846,-5.5283427238464355,-5.036864757537842,0.25640854239463806
1.3429662000853568,-4.8914642333984375,-3.0862650871276855,-2.156951904296875,-2.861299991607666,-3.9244508743286133,-1.8167459964752197,-4.921842575073242,-5.075700759887695,-0.13221153616905212
1.3458246000809595,-4.571254730224609,-2.725790023803711,-1.9221067428588867,-2.731356382369995,-3.9038169384002686,-1.0764034986495972,-3.995803117752075,-4.867559909820557,-0.24176034331321716
1.3488968000747263,-4.09675407409668,-2.07291841506958,-1.2565860748291016,-2.3116893768310547,-3.7430405616760254,-0.09416206181049347,-2.7794885635375977,-4.357523441314697,0.026567038148641586
1.3518185000866652,-3.5448968410491943,-1.1874103546142578,-0.25065815448760986,-1.640715479850769,-3.4849722385406494,1.021863579750061,-1.3665517568588257,-3.574185848236084,0.6778918504714966
1.354995800065808,-3.0113658905029297,-0.16702497005462646,0.9507906436920166,-0.794452428817749,-3.1828503608703613,2.1438395977020264,0.12035810947418213,-2.61283540725708,1.6370670795440674
1.3577886000275612,-2.566542625427246,0.8905336856842041,2.1982662677764893,0.1376224011182785,-2.873685121536255,3.1660549640655518,1.5685697793960571,-1.5929186344146729,2.7757654190063477
1.3607967999996617,-2.2264058589935303,1.9164420366287231,3.376849889755249,1.073766827583313,-2.558988094329834,4.0317912101745605,2.9058444499969482,-0.6210687756538391,3.944833755493164
1.363907500053756,-1.9437545537948608,2.883798360824585,4.42409086227417,1.9554165601730347,-2.202617645263672,4.741940021514893,4.112463474273682,0.2385825365781784,5.0099287033081055
1.3667507000500336,-1.619685173034668,3.805570125579834,5.334961891174316,2.754232406616211,-1.7417666912078857,5.348644733428955,5.221026420593262,0.9802614450454712,5.877994060516357
1.3697433000197634,-1.133183479309082,4.715017318725586,6.1380181312561035,3.466357707977295,-1.1103835105895996,5.929184913635254,6.293677806854248,1.6512874364852905,6.506476879119873
1.372611700091511,-0.38234490156173706,5.641345977783203,6.869832992553711,4.099743843078613,-0.2714201509952545,6.558582782745361,7.395535469055176,2.3305046558380127,6.899076461791992
1.3753805999876931,0.6825532913208008,6.589696407318115,7.551988124847412,4.661616802215576,0.7672082185745239,7.2837724685668945,8.56787109375,3.100630283355713,7.09269380569458
1.378387700067833,2.0296638011932373,7.5263214111328125,8.17827320098877,5.144182205200195,1.9351544380187988,8.107242584228516,9.8087158203125,4.014834403991699,7.138935565948486
1.3814299000659958,3.5428318977355957,8.381786346435547,8.717087745666504,5.522008895874023,3.1108665466308594,8.983976364135742,11.068122863769531,5.075120449066162,7.0867533683776855
1.3841537000844255,5.0422139167785645,9.065083503723145,9.12105941772461,5.756375789642334,4.142940044403076,9.830771446228027,12.258682250976562,6.226417541503906,6.970309734344482
1.3871153000509366,6.328882217407227,9.49332046508789,9.352618217468262,5.816150188446045,4.891874313354492,10.553262710571289,13.28244686126709,7.372139930725098,6.8154449462890625
1.3903402000432834,7.235395431518555,9.617501258850098,9.404168128967285,5.6940155029296875,5.26582670211792,11.073295593261719,14.060266494750977,8.399914741516113,6.643945693969727
1.3931771999923512,7.675880432128906,9.445572853088379,9.313365936279297,5.42579984664917,5.251791477203369,11.354964256286621,14.5570650100708,9.216257095336914,6.490108966827393
1.3962537000188604,7.664278984069824,9.039779663085938,9.146652221679688,5.08632230758667,4.916538715362549,11.407571792602539,14.787169456481934,9.767667770385742,6.393020153045654
1.3991257000016049,7.323851585388184,8.505797386169434,8.98773193359375,4.77744197845459,4.3993730545043945,11.283515930175781,14.809183120727539,10.059530258178711,6.395870208740234
1.4020862000761554,6.842448711395264,7.956776142120361,8.901386260986328,4.594771862030029,3.8695452213287354,11.050677299499512,14.695493698120117,10.141894340515137,6.5254950523376465
1.4051238000392914,6.403105735778809,7.468963146209717,8.894000053405762,4.586678504943848,3.4680869579315186,10.751304626464844,14.491154670715332,10.0760498046875,6.764165878295898
1.4080907000461593,6.141266822814941,7.063013076782227,8.914329528808594,4.736724853515625,3.2795565128326416,10.392293930053711,14.196228981018066,9.916252136230469,7.048642158508301
1.4110858000349253,6.092130661010742,6.688642501831055,8.853901863098145,4.956068515777588,3.301804542541504,9.930569648742676,13.75190258026123,9.679464340209961,7.2722368240356445
1.4136853000381961,6.185318946838379,6.24798583984375,8.589617729187012,5.11012077331543,3.4543721675872803,9.297942161560059,13.061049461364746,9.342682838439941,7.315395832061768
1.41656140005216,6.272999286651611,5.630734920501709,8.026840209960938,5.061954498291016,3.6091227531433105,8.430676460266113,12.021716117858887,8.854461669921875,7.080118179321289
1.4195535000180826,6.18196964263916,4.761412620544434,7.143862247467041,4.722164630889893,3.635411500930786,7.310186862945557,10.570919036865234,8.158783912658691,6.526994228363037
1.4228146000532433,5.779752254486084,3.63384747505188,6.006435871124268,4.083850860595703,3.4478445053100586,5.980199813842773,8.715062141418457,7.223028182983398,5.689756393432617
1.4255537000717595,5.0182294845581055,2.327104330062866,4.755967617034912,3.234802007675171,3.03017520904541,4.549206256866455,6.544670581817627,6.059908866882324,4.670998573303223
1.4285506000742316,3.954016923904419,0.9917374849319458,3.563333034515381,2.335390329360962,2.4441938400268555,3.159899950027466,4.219686508178711,4.729445934295654,3.608642578125
1.431542900041677,2.738314151763916,-0.18568721413612366,2.571963310241699,1.5738182067871094,1.8102353811264038,1.9481514692306519,1.936797857284546,3.332629442214966,2.6320745944976807
1.4343690000241622,1.5709046125411987,-1.030246376991272,1.8547908067703247,1.1150753498077393,1.2699018716812134,1.0054124593734741,-0.111732617020607,1.98841392993927,1.82844877243042
1.4374682999914512,0.6444412469863892,-1.422760248184204,1.3915607929229736,1.0538822412490845,0.9441355466842651,0.35317447781562805,-1.776221513748169,0.8083403706550598,1.2193275690078735
1.4404842000221834,0.09599322080612183,-1.3322199583053589,1.0824450254440308,1.3921242952346802,0.9041875600814819,-0.06017819419503212,-2.977725028991699,-0.12667995691299438,0.7672252655029297
1.4434200000250712,-0.03199159353971481,-0.8283675312995911,0.7879678010940552,2.0376462936401367,1.1465774774551392,-0.3385784327983856,-3.7194626331329346,-0.7860620021820068,0.39771610498428345
1.4464351000497118,0.18621009588241577,-0.07535979151725769,0.37260565161705017,2.8247671127319336,1.5862303972244263,-0.6141636967658997,-4.0873260498046875,-1.2007768154144287,0.02669678069651127
1.4493941999971867,0.587192952632904,0.7006644606590271,-0.2523210942745209,3.556411027908325,2.0807552337646484,-1.0119460821151733,-4.230405330657959,-1.4553765058517456,-0.4113115966320038
1.452370300074108,0.9487216472625732,1.2541989088058472,-1.1110764741897583,4.0450568199157715,2.452925443649292,-1.6272029876708984,-4.335203170776367,-1.6730409860610962,-0.9489537477493286
1.4555334000615403,1.0522243976593018,1.3753501176834106,-2.1622138023376465,4.155263423919678,2.5380570888519287,-2.505633592605591,-4.58593225479126,-1.981021523475647,-1.581915259361267
1.4585489000892267,0.7429264187812805,0.9426634907722473,-3.3162922859191895,3.835444211959839,2.2273166179656982,-3.6321659088134766,-5.1219635009765625,-2.472846269607544,-2.272416591644287
1.4613771000877023,-0.025016942992806435,-0.04364844784140587,-4.464417934417725,3.1276369094848633,1.4981863498687744,-4.933778285980225,-6.004523277282715,-3.1759719848632812,-2.9625229835510254
1.4644745000405237,-1.169203281402588,-1.4537177085876465,-5.497776031494141,2.1584994792938232,0.4282173812389374,-6.285232067108154,-7.195725917816162,-4.032736778259277,-3.5828261375427246
1.4673607000149786,-2.4961841106414795,-3.0531322956085205,-6.326261043548584,1.1093511581420898,-0.8175064325332642,-7.530054092407227,-8.564746856689453,-4.9095258712768555,-4.0658488273620605
1.4703879000153393,-3.7550532817840576,-4.562854290008545,-6.89112663269043,0.16725634038448334,-2.0257210731506348,-8.514859199523926,-9.923614501953125,-5.635326862335205,-4.362011432647705
1.473193500074558,-4.713900566101074,-5.736165523529053,-7.173892021179199,-0.5272396206855774,-2.9954941272735596,-9.129457473754883,-11.084453582763672,-6.060187816619873,-4.455649375915527
1.476072799996473,-5.228300094604492,-6.427602767944336,-7.200640678405762,-0.9200948476791382,-3.5921313762664795,-9.34299373626709,-11.915257453918457,-6.108301639556885,-4.377518653869629
1.4790610000491142,-5.283342361450195,-6.634038925170898,-7.039841175079346,-1.0600429773330688,-3.784092903137207,-9.221746444702148,-12.38204288482666,-5.814757347106934,-4.203965187072754
1.482063899980858,-4.993592262268066,-6.493697166442871,-6.796305179595947,-1.083832025527954,-3.651325225830078,-8.921825408935547,-12.556619644165039,-5.324908256530762,-4.05212926864624
1.4850315999938175,-4.563650131225586,-6.238309383392334,-6.587490558624268,-1.1728334426879883,-3.3589272499084473,-8.649197578430176,-12.587285995483398,-4.85794734954834,-4.046216011047363
1.488318799994886,-4.21718168258667,-6.120217800140381,-6.5189361572265625,-1.49559485912323,-3.1064515113830566,-8.602940559387207,-12.644051551818848,-4.6433515548706055,-4.285622596740723
1.4910686999792233,-4.135177135467529,-6.335710048675537,-6.659322261810303,-2.1589813232421875,-3.0762739181518555,-8.916638374328613,-12.859048843383789,-4.856229305267334,-4.815949440002441
1.4941222000634298,-4.401595592498779,-6.968146800994873,-7.020696640014648,-3.1763758659362793,-3.3856217861175537,-9.61658763885498,-13.279388427734375,-5.562897682189941,-5.60897970199585
1.4970677000237629,-5.004085540771484,-7.973465442657471,-7.557980060577393,-4.471498012542725,-4.071959972381592,-10.61556339263916,-13.857525825500488,-6.708247184753418,-6.568424701690674
1.4997452000388876,-5.850541114807129,-9.203096389770508,-8.180292129516602,-5.905555725097656,-5.093366622924805,-11.739779472351074,-14.470758438110352,-8.13127326965332,-7.55414342880249
1.5026756000006571,-6.812161445617676,-10.44990348815918,-8.77383041381836,-7.318953037261963,-6.352517127990723,-12.778695106506348,-14.963052749633789,-9.607925415039062,-8.419052124023438
1.5059831000398844,-7.7515549659729,-11.497286796569824,-9.230355262756348,-8.565108299255371,-7.712528705596924,-13.538314819335938,-15.185538291931152,-10.895934104919434,-9.044837951660156
1.5087152000050992,-8.536219596862793,-12.151983261108398,-9.44627571105957,-9.52592658996582,-9.011287689208984,-13.870808601379395,-15.020461082458496,-11.773066520690918,-9.349542617797852
1.5116776999784634,-9.036837577819824,-12.264389038085938,-9.345647811889648,-10.112154960632324,-10.06855297088623,-13.694783210754395,-14.389735221862793,-12.064269065856934,-9.300484657287598
1.5146609999937937,-9.132203102111816,-11.732504844665527,-8.87443733215332,-10.257975578308105,-10.706803321838379,-12.983317375183105,-13.246140480041504,-11.656026840209961,-8.904596328735352
1.5176114999921992,-8.692770957946777,-10.496438026428223,-7.9938201904296875,-9.905203819274902,-10.74974250793457,-11.740900039672852,-11.558677673339844,-10.497550964355469,-8.182099342346191
1.5206854999996722,-7.61823844909668,-8.551647186279297,-6.692465782165527,-9.01602840423584,-10.064361572265625,-9.994880676269531,-9.317618370056152,-8.613801956176758,-7.161897659301758
1.523676700075157,-5.879973411560059,-5.963974475860596,-4.989920139312744,-7.591378211975098,-8.601436614990234,-7.791489124298096,-6.548763751983643,-6.112853527069092,-5.875205039978027
1.5264376000268385,-3.553279399871826,-2.883790969848633,-2.952018976211548,-5.695384979248047,-6.4254841804504395,-5.207374572753906,-3.3374745845794678,-3.1851789951324463,-4.358287811279297
1.529451600043103,-0.8321795463562012,0.4537392854690552,-0.6912256479263306,-3.4692981243133545,-3.724414110183716,-2.361071825027466,0.15663309395313263,-0.08935944736003876,-2.660078763961792
1.532405300065875,1.985320806503296,3.7504096031188965,1.6370720863342285,-1.1265928745269775,-0.7940521836280823,0.577869176864624,3.6996376514434814,2.8754944801330566,-0.8486935496330261
1.535382300033234,4.564329147338867,6.698034763336182,3.856353998184204,1.0836536884307861,2.017252206802368,3.4043140411376953,7.018712043762207,5.428366184234619,0.9949764013290405
1.5386083000339568,6.602725505828857,9.037004470825195,5.797094345092773,2.924076557159424,4.374777793884277,5.9076032638549805,9.850610733032227,7.350809574127197,2.7755720615386963
1.5413942000595853,7.912463665008545,10.620109558105469,7.333188056945801,4.228046417236328,6.0360870361328125,7.919490814208984,12.006011962890625,8.538237571716309,4.399069786071777
1.5440797000192106,8.467034339904785,11.450080871582031,8.417165756225586,4.943042755126953,6.898932456970215,9.365426063537598,13.423576354980469,9.025907516479492,5.790832996368408
1.5474931000499055,8.400429725646973,11.679152488708496,9.092175483703613,5.1446757316589355,7.023316383361816,10.294656753540039,14.190621376037598,8.97877311706543,6.904815673828125
1.550054799998179,7.974261283874512,11.569184303283691,9.491146087646484,5.018584728240967,6.612179756164551,10.881392478942871,14.52815055847168,8.657137870788574,7.735076904296875
1.553060100064613,7.492348670959473,11.418757438659668,9.807425498962402,4.807625770568848,5.950516700744629,11.38935661315918,14.734058380126953,8.349235534667969,8.316880226135254
1.5563429000321776,7.231326103210449,11.490320205688477,10.25368595123291,4.752806663513184,5.341914653778076,12.110864639282227,15.111865997314453,8.311463356018066,8.723987579345703
1.5589949000859633,7.37443208694458,11.942316055297852,11.004929542541504,5.030328750610352,5.038132667541504,13.28632926940918,15.8925199508667,8.708775520324707,9.052143096923828
1.5620031000580639,7.968507766723633,12.788139343261719,12.143270492553711,5.7023396492004395,5.179139137268066,15.024836540222168,17.168169021606445,9.576760292053223,9.393534660339355
1.5650308000622317,8.919798851013184,13.895503997802734,13.621920585632324,6.701967239379883,5.764675617218018,17.258298873901367,18.86547088623047,10.814433097839355,9.80860424041748
1.5679986000759527,10.017067909240723,15.019878387451172,15.259905815124512,7.848990440368652,6.657137393951416,19.73622703552246,20.75745964050293,12.203909873962402,10.303400993347168
1.5712311000097543,10.9795503616333,15.864008903503418,16.77181625366211,8.893087387084961,7.616527080535889,22.070886611938477,22.513559341430664,13.45820140838623,10.81942367553711
1.5743817000184208,11.519052505493164,16.147634506225586,17.83136558532715,9.576096534729004,8.357414245605469,23.824033737182617,23.77582550048828,14.28333568572998,11.241876602172852
1.5773433999856934,11.405125617980957,15.677922248840332,18.15725326538086,9.699488639831543,8.623502731323242,24.615495681762695,24.246599197387695,14.444656372070312,11.432880401611328
1.5803548999829218,10.525872230529785,14.394488334655762,17.590221405029297,9.176678657531738,8.257657051086426,24.22275733947754,23.763202667236328,13.826080322265625,11.27434253692627
1.5836095000850037,8.910567283630371,12.388270378112793,16.14413833618164,8.056645393371582,7.234423637390137,22.639799118041992,22.33647918701172,12.456073760986328,10.708450317382812
1.5862298000138253,6.7474493980407715,9.892158508300781,14.017194747924805,6.521661281585693,5.6829833984375,20.09110450744629,20.159221649169922,10.518119812011719,9.769792556762695
1.58928180008661,4.351740837097168,7.238090991973877,11.552669525146484,4.847564697265625,3.8565144538879395,16.981245040893555,17.564289093017578,8.313541412353516,8.58782958984375
1.5922471000812948,2.1076760292053223,4.795929431915283,9.159018516540527,3.344243049621582,2.074152946472168,13.802705764770508,14.956155776977539,6.210231304168701,7.358371257781982
1.5952152999816462,0.38777944445610046,2.904325246810913,7.219379425048828,2.2889139652252197,0.6501014828681946,11.026744842529297,12.725868225097656,4.564883232116699,6.301913738250732
1.5982342000352219,-0.5263137817382812,1.8071630001068115,6.0035295486450195,1.8677679300308228,-0.18063406646251678,9.001546859741211,11.169663429260254,3.6510469913482666,5.601217746734619
1.601223299978301,-0.49502938985824585,1.6096101999282837,5.612973213195801,2.1405906677246094,-0.30172672867774963,7.885823726654053,10.431894302368164,3.605905055999756,5.353710651397705
1.603879400063306,0.43436694145202637,2.2519590854644775,5.968133449554443,3.025848150253296,0.2507903575897217,7.626657009124756,10.474898338317871,4.392513751983643,5.5452046394348145
1.6070908000692725,2.04927396774292,3.521268367767334,6.833556652069092,4.32224702835083,1.314908504486084,7.985714435577393,11.090396881103516,5.809895038604736,6.048820495605469
1.6098594000795856,4.018798351287842,5.088838577270508,7.880074977874756,5.7487053871154785,2.641608476638794,8.603814125061035,11.94433879852295,7.531517028808594,6.65854024887085
1.6125984999816865,5.9586944580078125,6.572074890136719,8.758774757385254,6.999690055847168,3.9481818675994873,9.086275100708008,12.646085739135742,9.170317649841309,7.139565467834473
1.6155930000822991,7.513742446899414,7.608692169189453,9.170757293701172,7.804978847503662,4.975716590881348,9.08100700378418,12.821208000183105,10.353906631469727,7.279573440551758
1.6185831000329927,8.43859577178955,7.93446159362793,8.931035995483398,7.987199783325195,5.5540242195129395,8.362037658691406,12.201322555541992,10.815398216247559,6.952372074127197
1.6216882000444457,8.633804321289062,7.433032035827637,7.984340190887451,7.49262809753418,5.6185431480407715,6.8545379638671875,10.666606903076172,10.43580436706543,6.125641345977783
1.624579400056973,8.156518936157227,6.156216621398926,6.404142379760742,6.399614334106445,5.221479892730713,4.640890121459961,8.270474433898926,9.267179489135742,4.867776393890381
1.6275487000821158,7.198655605316162,4.3013410568237305,4.357490062713623,4.894886016845703,4.511983871459961,1.92324960231781,5.216991424560547,7.510122299194336,3.3153507709503174
1.6307396000484005,6.0085930824279785,2.1430001258850098,2.044307231903076,3.2169768810272217,3.678485155105591,-1.0448665618896484,1.7981350421905518,5.443068027496338,1.615858554840088
1.6330582000082359,4.815362453460693,-0.050019461661577225,-0.35718002915382385,1.5878938436508179,2.8875067234039307,-4.031630516052246,-1.685892105102539,3.339637517929077,-0.12082753330469131
1.6360617000609636,3.7652690410614014,-2.0899577140808105,-2.7312145233154297,0.15724429488182068,2.238222599029541,-6.882465839385986,-5.000953674316406,1.3914989233016968,-1.8495334386825562
1.639344000024721,2.872990369796753,-3.9146535396575928,-5.0320353507995605,-1.032536268234253,1.72890305519104,-9.542757987976074,-8.025312423706055,-0.34264427423477173,-3.5894696712493896
1.6421033000806347,2.0402719974517822,-5.580806732177734,-7.272134304046631,-2.038236618041992,1.269687294960022,-12.046073913574219,-10.75346565246582,-1.930088758468628,-5.390831470489502
1.6450416999869049,1.102278709411621,-7.211610794067383,-9.473787307739258,-2.9718070030212402,0.7207162976264954,-14.460482597351074,-13.253741264343262,-3.516449213027954,-7.282838344573975
1.6480563000077382,-0.08890002965927124,-8.916028022766113,-11.622817039489746,-3.9343409538269043,-0.03571200370788574,-16.822525024414062,-15.600504875183105,-5.245591640472412,-9.22661018371582
1.651018200092949,-1.5829696655273438,-10.712189674377441,-13.634856224060059,-4.953143119812012,-1.0366277694702148,-19.087366104125977,-17.80779457092285,-7.176912784576416,-11.08827018737793
1.6535036000423133,-3.287679672241211,-12.486995697021484,-15.347063064575195,-5.951157093048096,-2.2050063610076904,-21.10463523864746,-19.78807830810547,-9.23331069946289,-12.650675773620605
1.6565904000308365,-4.982330322265625,-14.012893676757812,-16.55417251586914,-6.761947154998779,-3.3630459308624268,-22.64955711364746,-21.364944458007812,-11.210554122924805,-13.671428680419922
1.6594916000030935,-6.371031761169434,-15.009424209594727,-17.06270980834961,-7.182253837585449,-4.281524658203125,-23.48067855834961,-22.31894874572754,-12.822986602783203,-13.954151153564453
1.662494800053537,-7.186318874359131,-15.23531723022461,-16.753217697143555,-7.048232078552246,-4.762429714202881,-23.41916275024414,-22.46778106689453,-13.799530982971191,-13.416568756103516
1.665474700042978,-7.277431488037109,-14.572854042053223,-15.627054214477539,-6.3026909828186035,-4.707720756530762,-22.407297134399414,-21.730913162231445,-13.967753410339355,-12.126008987426758
1.66848370002117,-6.668107032775879,-13.077710151672363,-13.825321197509766,-5.030677318572998,-4.162111282348633,-20.544036865234375,-20.174238204956055,-13.317988395690918,-10.29710865020752
1.6744359000585973,-5.556994915008545,-10.974957466125488,-11.607720375061035,-3.447544813156128,-3.303973436355591,-18.07008171081543,-18.003835678100586,-12.010855674743652,-8.238565444946289
1.67746600008104,-4.262180328369141,-8.60257339477539,-9.298123359680176,-1.843145489692688,-2.3961637020111084,-15.30985164642334,-15.514835357666016,-10.333842277526855,-6.2758941650390625
1.6804483000887558,-3.1208949089050293,-6.3229241371154785,-7.2133708000183105,-0.5017364621162415,-1.7013603448867798,-12.595489501953125,-13.014037132263184,-8.618102073669434,-4.673264503479004
1.6832843000302091,-2.384232521057129,-4.435253143310547,-5.596848011016846,0.373088002204895,-1.4006541967391968,-10.190628051757812,-10.744155883789062,-7.144866943359375,-3.577209711074829
1.6862509000347927,-2.1557319164276123,-3.1155617237091064,-4.572956085205078,0.7036892175674438,-1.549047589302063,-8.240960121154785,-8.835724830627441,-6.084575653076172,-3.0010271072387695
1.6894458000315353,-2.368166208267212,-2.396340847015381,-4.127662181854248,0.5454375743865967,-2.0618624687194824,-6.753747940063477,-7.290755748748779,-5.466109752655029,-2.8413045406341553
1.6925066000549123,-2.8204689025878906,-2.1892409324645996,-4.134720325469971,0.052078429609537125,-2.7517385482788086,-5.624644756317139,-6.0107035636901855,-5.1981000900268555,-2.9344305992126465
1.6952601000666618,-3.264590263366699,-2.336564302444458,-4.396180152893066,-0.5829147696495056,-3.401054620742798,-4.682657241821289,-4.8487229347229,-5.123080730438232,-3.1131906509399414
1.698359000030905,-3.48461651802063,-2.6634156703948975,-4.691683292388916,-1.1815688610076904,-3.8242852687835693,-3.7439911365509033,-3.6596133708953857,-5.074543476104736,-3.2450473308563232
1.701050900039263,-3.362151622772217,-3.019897222518921,-4.82895565032959,-1.6233726739883423,-3.9226551055908203,-2.662428855895996,-2.342057943344116,-4.922966003417969,-3.2562808990478516
1.704045300022699,-2.9043333530426025,-3.3019304275512695,-4.681179046630859,-1.8599823713302612,-3.703951597213745,-1.3621952533721924,-0.8582550883293152,-4.597456932067871,-3.1321754455566406
1.7068315000506118,-2.224705219268799,-3.446115255355835,-4.189772605895996,-1.9016284942626953,-3.2662136554718018,0.16073551774024963,0.7751772999763489,-4.077712059020996,-2.883805751800537
1.7097178000258282,-1.4808591604232788,-3.414987087249756,-3.366314649581909,-1.7872883081436157,-2.750093698501587,1.8469706773757935,2.504056930541992,-3.3700268268585205,-2.532954692840576
1.7127364000771195,-0.8159831762313843,-3.1785354614257812,-2.26434063911438,-1.5534799098968506,-2.285048007965088,3.6036205291748047,4.263585567474365,-2.4834399223327637,-2.079904556274414
1.7157218999927863,-0.30727338790893555,-2.707510471343994,-0.9640491604804993,-1.2143150568008423,-1.9461920261383057,5.330753326416016,5.997276782989502,-1.4147264957427979,-1.507086992263794
1.7187012999784201,0.05940917506814003,-1.9736007452011108,0.44974127411842346,-0.7549073100090027,-1.7272872924804688,6.944930076599121,7.662352561950684,-0.15657731890678406,-0.7842874526977539
1.7217467000009492,0.370665043592453,-0.9645342230796814,1.896972417831421,-0.14682145416736603,-1.553815245628357,8.39232063293457,9.230722427368164,1.2864434719085693,0.11190489679574966
1.7245496000396088,0.7340288162231445,0.29619595408439636,3.296165704727173,0.6253941655158997,-1.3237987756729126,9.639955520629883,10.669991493225098,2.8660876750946045,1.1703492403030396
1.7275287000229582,1.238921046257019,1.7465906143188477,4.573060512542725,1.54679536819458,-0.9436748623847961,10.67713451385498,11.948113441467285,4.49336051940918,2.344302177429199
1.7306669000536203,1.911318063735962,3.2882912158966064,5.662199974060059,2.558483839035034,-0.3735743463039398,11.506628036499023,13.032797813415527,6.04372501373291,3.5522117614746094
1.7335381000302732,2.6993167400360107,4.804291248321533,6.513041973114014,3.5643515586853027,0.35050827264785767,12.134806632995605,13.89646053314209,7.380226135253906,4.690572738647461
1.736551900045015,3.493887186050415,6.184946537017822,7.108689785003662,4.452311992645264,1.1283190250396729,12.578633308410645,14.533415794372559,8.393892288208008,5.665929317474365
1.7399471000535414,4.171431064605713,7.3547515869140625,7.476346015930176,5.125283241271973,1.829248309135437,12.868667602539062,14.97125244140625,9.036526679992676,6.419953346252441
1.7425233999965712,4.635360240936279,8.285093307495117,7.681670665740967,5.527251720428467,2.336623191833496,13.04273796081543,15.267736434936523,9.330107688903809,6.942589282989502
1.7455031999852508,4.849649429321289,8.994328498840332,7.816758632659912,5.6585845947265625,2.587488889694214,13.142845153808594,15.49764633178711,9.357555389404297,7.269543170928955
1.748491800040938,4.840174674987793,9.528312683105469,7.974036693572998,5.569551944732666,2.58902645111084,13.200271606445312,15.725506782531738,9.226326942443848,7.467597484588623
1.7514833000022918,4.673998832702637,9.933192253112793,8.204483032226562,5.337368488311768,2.408914804458618,13.215782165527344,15.97475814819336,9.028160095214844,7.602235317230225
1.7545086999889463,4.4213972091674805,10.226234436035156,8.498242378234863,5.035147190093994,2.1418046951293945,13.149971961975098,16.20608139038086,8.804046630859375,7.7134857177734375
1.7573323000688106,4.117713451385498,10.382612228393555,8.785177230834961,4.704560279846191,1.870240330696106,12.933416366577148,16.31609344482422,8.527835845947266,7.798542499542236
1.7602002000203356,3.7498834133148193,10.337502479553223,8.94831657409668,4.3444623947143555,1.6346726417541504,12.482040405273438,16.157411575317383,8.12100887298584,7.816435813903809
1.7628180000465363,3.26719069480896,10.005932807922363,8.861872673034668,3.9157967567443848,1.4216924905776978,11.726161003112793,15.573906898498535,7.484987735748291,7.702162265777588
1.7657707000616938,2.6104023456573486,9.312161445617676,8.435966491699219,3.365333318710327,1.1792724132537842,10.638307571411133,14.445944786071777,6.543548107147217,7.397012710571289
1.7687940000323579,1.7507588863372803,8.219292640686035,7.6460981369018555,2.6543869972229004,0.8419944643974304,9.250993728637695,12.728286743164062,5.276601314544678,6.8736252784729
1.7720162000041455,0.7136813402175903,6.745417594909668,6.542285442352295,1.782104253768921,0.36106929183006287,7.646733283996582,10.462416648864746,3.7313644886016846,6.150600433349609
1.7747499999823049,-0.414591521024704,4.963647365570068,5.2349066734313965,0.7948658466339111,-0.27170974016189575,5.9366960525512695,7.76995325088501,2.014643430709839,5.296135425567627
1.7778017000528052,-1.515507698059082,2.9826321601867676,3.8573384284973145,-0.22675617039203644,-1.0274543762207031,4.224085330963135,4.820976257324219,0.2593116760253906,4.407233238220215
1.7807483000215143,-2.4741711616516113,0.9206792116165161,2.520866632461548,-1.1934480667114258,-1.8525224924087524,2.566575527191162,1.7888007164001465,-1.415285587310791,3.5746991634368896
1.783217600081116,-3.21466326713562,-1.1156383752822876,1.294335961341858,-2.0312843322753906,-2.680443048477173,0.9750189185142517,-1.1732548475265503,-2.9227309226989746,2.8714280128479004
1.7864340000087395,-3.7294681072235107,-3.0450668334960938,0.189356729388237,-2.7047791481018066,-3.460557460784912,-0.5837492942810059,-3.958087682723999,-4.230968475341797,2.322535991668701
1.7894270999822766,-4.061224460601807,-4.8110151290893555,-0.8296317458152771,-3.2206130027770996,-4.152435302734375,-2.155552864074707,-6.496520042419434,-5.339677333831787,1.9024715423583984
1.7922164000337943,-4.287501335144043,-6.370133399963379,-1.8111867904663086,-3.615732431411743,-4.730275630950928,-3.7636523246765137,-8.746570587158203,-6.268106937408447,1.552407145500183
1.7951856000581756,-4.482762336730957,-7.680898189544678,-2.790618896484375,-3.9375851154327393,-5.1728973388671875,-5.383411407470703,-10.672211647033691,-7.025754451751709,1.1970579624176025
1.7984579000622034,-4.6897969245910645,-8.696436882019043,-3.7653310298919678,-4.219750881195068,-5.460551738739014,-6.937049388885498,-12.233001708984375,-7.601435661315918,0.7738174200057983
1.8011892000213265,-4.90249490737915,-9.368578910827637,-4.694123268127441,-4.467616558074951,-5.569635391235352,-8.314655303955078,-13.387004852294922,-7.964614391326904,0.2481505125761032
1.8041314000729471,-5.088878154754639,-9.666668891906738,-5.5073089599609375,-4.660367965698242,-5.491765975952148,-9.409585952758789,-14.108323097229004,-8.09003734588623,-0.36988309025764465
1.806940000038594,-5.202104091644287,-9.592631340026855,-6.13521146774292,-4.758493900299072,-5.230644226074219,-10.160710334777832,-14.406049728393555,-7.977311611175537,-1.030006766319275
1.8097595000872388,-5.213298797607422,-9.195993423461914,-6.537957191467285,-4.7260308265686035,-4.813889980316162,-10.577933311462402,-14.339152336120605,-7.67142391204834,-1.6614590883255005
1.8122943000635132,-5.131789684295654,-8.574755668640137,-6.725776672363281,-4.548565864562988,-4.292408466339111,-10.747310638427734,-14.018709182739258,-7.270049571990967,-2.1937687397003174
1.8153008000226691,-5.002604961395264,-7.8587870597839355,-6.761428356170654,-4.243095397949219,-3.727888345718384,-10.806953430175781,-13.590156555175781,-6.907500267028809,-2.5834739208221436
1.8183496000710875,-4.898405075073242,-7.1833953857421875,-6.746244430541992,-3.8580288887023926,-3.1847259998321533,-10.90572738647461,-13.203523635864258,-6.72680139541626,-2.8291420936584473
1.821466700057499,-4.895997047424316,-6.657285690307617,-6.79392671585083,-3.4622905254364014,-2.7166965007781982,-11.156493186950684,-12.9791898727417,-6.845440864562988,-2.9779675006866455
1.824289400014095,-5.042766094207764,-6.3346028327941895,-6.994168281555176,-3.1223857402801514,-2.356153726577759,-11.597299575805664,-12.976500511169434,-7.318012714385986,-3.1097216606140137
1.8272518999874592,-5.351240158081055,-6.205023288726807,-7.38012170791626,-2.8860104084014893,-2.119102716445923,-12.173182487487793,-13.179784774780273,-8.1232328414917,-3.307932138442993
1.8302819000091404,-5.785645008087158,-6.195903301239014,-7.913973808288574,-2.764967441558838,-1.9992305040359497,-12.747172355651855,-13.499879837036133,-9.159834861755371,-3.628236770629883
1.8327540000900626,-6.2611188888549805,-6.190930366516113,-8.484979629516602,-2.7294387817382812,-1.9679361581802368,-13.129268646240234,-13.790765762329102,-10.259101867675781,-4.069753170013428
1.835763500072062,-6.656562805175781,-6.058254241943359,-8.928691864013672,-2.7127206325531006,-1.9726316928863525,-13.120803833007812,-13.876546859741211,-11.212361335754395,-4.561676025390625
1.838866800069809,-6.834019660949707,-5.683717250823975,-9.070298194885254,-2.6297221183776855,-1.9390065670013428,-12.566092491149902,-13.588057518005371,-11.808161735534668,-4.982037544250488
1.8417364000342786,-6.659198760986328,-4.994252681732178,-8.76337718963623,-2.3968915939331055,-1.7759333848953247,-11.385531425476074,-12.792126655578613,-11.864219665527344,-5.187397003173828
1.844751000055112,-6.034080982208252,-3.9748406410217285,-7.931052207946777,-1.956048846244812,-1.3975818157196045,-9.595725059509277,-11.415313720703125,-11.261489868164062,-5.058799743652344
1.8477444000309333,-4.911504745483398,-2.6658546924591064,-6.585302829742432,-1.2888187170028687,-0.7382487058639526,-7.30042028427124,-9.453932762145996,-9.95521068572998,-4.538727760314941
1.8507287000538781,-3.3183014392852783,-1.1537532806396484,-4.826071262359619,-0.4216446578502655,0.22057604789733887,-4.667524337768555,-6.974130630493164,-7.9866204261779785,-3.6514692306518555
1.8532256000908092,-1.3633573055267334,0.44785553216934204,-2.814964532852173,0.5766053795814514,1.4292906522750854,-1.8879474401474,-4.101765155792236,-5.475030899047852,-2.496610403060913
1.856307000038214,0.7770874500274658,2.019751787185669,-0.7480098605155945,1.6097580194473267,2.7735307216644287,0.8526084423065186,-1.0035467147827148,-2.5986526012420654,-1.2219197750091553
1.859202100080438,2.8824522495269775,3.4544944763183594,1.1883254051208496,2.5721542835235596,4.086970806121826,3.4038217067718506,2.1354284286499023,0.4303814768791199,0.01629975624382496
1.8621893000090495,4.725398063659668,4.667413234710693,2.847572088241577,3.3662610054016113,5.186903953552246,5.659175872802734,5.1308465003967285,3.391453981399536,1.0891073942184448
1.8652163000078872,6.104979991912842,5.598180770874023,4.137670516967773,3.9141719341278076,5.908085346221924,7.551109313964844,7.815433502197266,6.074791431427002,1.9132214784622192
1.8681513000046834,6.886763572692871,6.208305358886719,5.0191497802734375,4.163577556610107,6.140077114105225,9.037281036376953,10.050907135009766,8.30566120147705,2.450673818588257
1.8714565000263974,7.023458003997803,6.478745937347412,5.497867107391357,4.091056823730469,5.8509039878845215,10.089414596557617,11.736892700195312,9.95754337310791,2.6992764472961426
1.8742632999783382,6.556449890136719,6.404199600219727,5.609541893005371,3.6979637145996094,5.08829927444458,10.686038970947266,12.813227653503418,10.957980155944824,2.671105146408081
1.8769250999903306,5.601436614990234,5.995391368865967,5.4091410636901855,3.007744073867798,3.9619662761688232,10.817137718200684,13.264286041259766,11.292638778686523,2.3836581707000732
1.8799220999935642,4.333252429962158,5.28420877456665,4.960264682769775,2.0673744678497314,2.627213478088379,10.492960929870605,13.120771408081055,11.010165214538574,1.8552367687225342
1.8832076999824494,2.9496922492980957,4.324370384216309,4.327525615692139,0.9427973031997681,1.2479661703109741,9.752033233642578,12.458535194396973,10.215639114379883,1.1115827560424805
1.8861278999829665,1.6407835483551025,3.1909096240997314,3.5727012157440186,-0.2841135561466217,-0.029155470430850983,8.662994384765625,11.391267776489258,9.055405616760254,0.1955251842737198
1.8891659000655636,0.5492807626724243,1.9703515768051147,2.7463464736938477,-1.5250991582870483,-1.1000540256500244,7.3164896965026855,10.057720184326172,7.695716857910156,-0.8307955861091614
1.8921056999824941,-0.24064859747886658,0.7520672082901001,1.8887009620666504,-2.6912965774536133,-1.9066696166992188,5.811441898345947,8.605846405029297,6.299829006195068,-1.882167100906372
1.8950774000259116,-0.7259595990180969,-0.3921816647052765,1.019973874092102,-3.711031436920166,-2.4454362392425537,4.232256889343262,7.16688346862793,4.993957042694092,-2.874098539352417
1.8981269000796601,-0.9692325592041016,-1.4145969152450562,0.15202565491199493,-4.533454895019531,-2.7499735355377197,2.6451871395111084,5.842623710632324,3.8566794395446777,-3.7262210845947266
1.9005725000752136,-1.0800349712371826,-2.2943406105041504,-0.7025511860847473,-5.135156631469727,-2.8788909912109375,1.0930794477462769,4.6887431144714355,2.905850648880005,-4.376313209533691
1.9035712000913918,-1.1823515892028809,-3.034976005554199,-1.5247994661331177,-5.518960475921631,-2.8959109783172607,-0.3953448235988617,3.7149465084075928,2.112578868865967,-4.78880500793457
1.9069798000855371,-1.3719433546066284,-3.6526236534118652,-2.2829883098602295,-5.707421779632568,-2.852264881134033,-1.7962958812713623,2.888732671737671,1.419891595840454,-4.954067707061768
1.9095921000698581,-1.6903572082519531,-4.16768217086792,-2.93851375579834,-5.73567008972168,-2.7762465476989746,-3.08245587348938,2.1476311683654785,0.7669395208358765,-4.8878607749938965
1.912565300008282,-2.117866039276123,-4.601478576660156,-3.462625741958618,-5.645841121673584,-2.6770036220550537,-4.226879119873047,1.4129767417907715,0.10651347786188126,-4.632173538208008
1.9155750999925658,-2.5807507038116455,-4.9731645584106445,-3.847346782684326,-5.478226661682129,-2.5463342666625977,-5.207413673400879,0.6100962162017822,-0.5818794965744019,-4.248154163360596
1.9185144000221044,-2.9841978549957275,-5.303144454956055,-4.115780830383301,-5.269854545593262,-2.374136447906494,-6.015332221984863,-0.31831637024879456,-1.2962149381637573,-3.8139796257019043
1.9216197000350803,-3.248044729232788,-5.617650032043457,-4.320951461791992,-5.052526950836182,-2.1607792377471924,-6.665774822235107,-1.402347445487976,-2.0231783390045166,-3.4138448238372803
1.9245148000773042,-3.330977439880371,-5.944986820220947,-4.526943206787109,-4.848189830780029,-1.918084979057312,-7.192379474639893,-2.6375389099121094,-2.745471954345703,-3.1197705268859863
1.9275323000038043,-3.252013921737671,-6.3117475509643555,-4.7857584953308105,-4.670151233673096,-1.6768887042999268,-7.639811038970947,-3.985464334487915,-3.4530417919158936,-2.9731011390686035
1.9304990000091493,-3.0658843517303467,-6.733513832092285,-5.12152099609375,-4.5208210945129395,-1.4677482843399048,-8.05486011505127,-5.383474349975586,-4.140165328979492,-2.9755022525787354
1.9329986000666395,-2.857424020767212,-7.2127556800842285,-5.521807670593262,-4.396909713745117,-1.327301025390625,-8.476332664489746,-6.761362552642822,-4.808139801025391,-3.086398124694824
1.935998500091955,-2.7190494537353516,-7.741622447967529,-5.9498186111450195,-4.298858642578125,-1.295696496963501,-8.934061050415039,-8.062559127807617,-5.463558197021484,-3.2398695945739746
1.9392098999815062,-2.7283122539520264,-8.306960105895996,-6.365816116333008,-4.235391616821289,-1.4091811180114746,-9.453722953796387,-9.263121604919434,-6.119470119476318,-3.370213508605957
1.9420290000271052,-2.950847864151001,-8.902654647827148,-6.749488830566406,-4.231254577636719,-1.7093874216079712,-10.06110954284668,-10.381428718566895,-6.799220561981201,-3.440195322036743
