Timestamp,C3,CZ,C4,FCZ,FC3,CP4,CPZ,CP3,FC4
0.0,-2.809208631515503,-0.34485897421836853,3.352160930633545,0.551855742931366,-0.11394006013870239,3.5947883129119873,0.5007979869842529,1.3663017749786377,0.7590381503105164
0.0030710999853909016,-1.847702980041504,-0.1914825141429901,2.7282371520996094,0.8672841787338257,0.6380882263183594,2.1857457160949707,-0.16317814588546753,1.886325716972351,0.6222499012947083
0.006024100002832711,-0.6689567565917969,-0.18133454024791718,1.8561357259750366,1.0759299993515015,1.4326386451721191,0.6734838485717773,-0.8798131346702576,2.387505531311035,0.29093191027641296
0.00924669997766614,0.49217140674591064,-0.4053567349910736,0.7989032864570618,1.0991051197052002,2.1285738945007324,-0.8663178086280823,-1.685305118560791,2.7343404293060303,-0.19082093238830566
0.01163779990747571,1.3900787830352783,-0.9188539981842041,-0.3464946150779724,0.8902071118354797,2.575589656829834,-2.3526387214660645,-2.5816032886505127,2.8063619136810303,-0.7397093772888184
0.014691899996250868,1.804518461227417,-1.7393226623535156,-1.4885406494140625,0.43716055154800415,2.638014554977417,-3.7261970043182373,-3.5483670234680176,2.513899564743042,-1.276716947555542
0.01977159990929067,1.59074068069458,-2.839423656463623,-2.559870719909668,-0.23265931010246277,2.231912612915039,-4.959201812744141,-4.550269603729248,1.8222466707229614,-1.7476081848144531
0.02197929995600134,0.7240278720855713,-4.150144100189209,-3.5335023403167725,-1.0588475465774536,1.3552441596984863,-6.058906078338623,-5.54733419418335,0.7706992626190186,-2.1457982063293457
0.02498539991211146,-0.6878701448440552,-5.570392608642578,-4.424979209899902,-1.962019443511963,0.09283528476953506,-7.060950756072998,-6.499884605407715,-0.5222345590591431,-2.517871618270874
0.02838299993891269,-2.412233352661133,-6.977585792541504,-5.26943826675415,-2.85597825050354,-1.387067198753357,-8.00864028930664,-7.370436668395996,-1.8700023889541626,-2.938244342803955
0.030931899906136096,-4.148061275482178,-8.246095657348633,-6.103211879730225,-3.666226863861084,-2.8768603801727295,-8.935648918151855,-8.125123023986816,-3.051558256149292,-3.484670400619507
0.03397589991800487,-5.601120471954346,-9.26688289642334,-6.950794219970703,-4.344529628753662,-4.178232669830322,-9.854801177978516,-8.735833168029785,-3.8596935272216797,-4.220878601074219
0.036950399982742965,-6.549587726593018,-9.956286430358887,-7.802019119262695,-4.8670878410339355,-5.1416335105896,-10.745475769042969,-9.178890228271484,-4.143744945526123,-5.154264450073242
0.03990849992260337,-6.908737659454346,-10.269325256347656,-8.619884490966797,-5.235350608825684,-5.707192897796631,-11.560876846313477,-9.440916061401367,-3.8532943725585938,-6.240775108337402
0.04302669991739094,-6.72769832611084,-10.19747543334961,-9.347970008850098,-5.462666988372803,-5.895541191101074,-12.23575496673584,-9.518274307250977,-3.045529365539551,-7.388145446777344
0.04587779997382313,-6.157884120941162,-9.761467933654785,-9.915632247924805,-5.557305812835693,-5.785562515258789,-12.697039604187012,-9.415019989013672,-1.869537115097046,-8.463444709777832
0.04903639992699027,-5.390475273132324,-9.0051851272583,-10.255426406860352,-5.516152858734131,-5.4770588874816895,-12.880845069885254,-9.142023086547852,-0.5269837975502014,-9.320937156677246
0.05138469999656081,-4.600207328796387,-7.9937663078308105,-10.319503784179688,-5.328089714050293,-5.0619797706604,-12.750048637390137,-8.718917846679688,0.7703225016593933,-9.839367866516113
0.054385899915359914,-3.891434907913208,-6.807293891906738,-10.087141036987305,-4.981094837188721,-4.598113536834717,-12.303000450134277,-8.17098617553711,1.8475213050842285,-9.942492485046387
0.05736749991774559,-3.2835195064544678,-5.536966323852539,-9.569746017456055,-4.473701477050781,-4.106359004974365,-11.576826095581055,-7.526935577392578,2.5961737632751465,-9.613450050354004
0.06066409999039024,-2.728452205657959,-4.277370929718018,-8.810461044311523,-3.824578046798706,-3.5798232555389404,-10.640857696533203,-6.816108703613281,2.9833006858825684,-8.89894962310791
0.06338619999587536,-2.1617839336395264,-3.121319532394409,-7.881680965423584,-3.080077648162842,-3.0167930126190186,-9.585854530334473,-6.068201541900635,3.0375382900238037,-7.898283004760742
0.06635480001568794,-1.5399487018585205,-2.1436572074890137,-6.871059417724609,-2.300835132598877,-2.4232077598571777,-8.502903938293457,-5.306101322174072,2.829025983810425,-6.736536026000977
0.06956269999500364,-0.8687282204627991,-1.3952604532241821,-5.877680778503418,-1.5531054735183716,-1.8254334926605225,-7.47263765335083,-4.548407554626465,2.443471908569336,-5.545865535736084
0.07275339995976537,-0.21094511449337006,-0.8925133943557739,-4.992452621459961,-0.8892257213592529,-1.2634639739990234,-6.549086093902588,-3.8070151805877686,1.959336757659912,-4.437547206878662
0.0759208999807015,0.3471781015396118,-0.6136206388473511,-4.281905174255371,-0.3338885009288788,-0.7685598134994507,-5.7534637451171875,-3.0836641788482666,1.4426257610321045,-3.486457347869873
0.07895019999705255,0.7429832816123962,-0.4985649287700653,-3.7752768993377686,0.12635041773319244,-0.33782267570495605,-5.071702480316162,-2.3642096519470215,0.9529748558998108,-2.724543809890747
0.08177619997877628,0.9679192900657654,-0.46083807945251465,-3.456127405166626,0.5370622873306274,0.06770430505275726,-4.459862232208252,-1.617447018623352,0.5471544861793518,-2.142005205154419
0.08482150000054389,1.0818432569503784,-0.39987504482269287,-3.2538180351257324,0.9655584692955017,0.5189770460128784,-3.84908127784729,-0.7954936027526855,0.282905638217926,-1.6892571449279785
0.0877242999849841,1.211143136024475,-0.21938608586788177,-3.0597167015075684,1.4825044870376587,1.1048080921173096,-3.1607320308685303,0.15901732444763184,0.22225676476955414,-1.2943776845932007
0.09070689999498427,1.489761233329773,0.15010346472263336,-2.7448785305023193,2.1369428634643555,1.8858953714370728,-2.319432020187378,1.2968032360076904,0.4119836390018463,-0.8776592016220093
0.093816899927333,1.9945168495178223,0.7283841967582703,-2.1952738761901855,2.9340083599090576,2.8562331199645996,-1.274904489517212,2.6348233222961426,0.8610907196998596,-0.3670734763145447
0.09676119999494404,2.7010998725891113,1.4773056507110596,-1.3417110443115234,3.826094150543213,3.9281280040740967,-0.013586302287876606,4.139826774597168,1.5269473791122437,0.2791059613227844
0.09968310000840575,3.4644787311553955,2.2975807189941406,-0.19179530441761017,4.71213960647583,4.932831764221191,1.424477219581604,5.713765621185303,2.3096797466278076,1.0590710639953613
0.10267269995529205,4.048511028289795,3.046872615814209,1.1627862453460693,5.45451545715332,5.656949520111084,2.946983575820923,7.202709197998047,3.066694974899292,1.9187439680099487
0.10564279998652637,4.192868232727051,3.570756673812866,2.56290864944458,5.909228324890137,5.896400451660156,4.421061038970947,8.425071716308594,3.6423513889312744,2.760584831237793
0.10883529996499419,3.710893392562866,3.7431371212005615,3.8138041496276855,5.962268352508545,5.5253777503967285,5.697240352630615,9.215605735778809,3.9144792556762695,3.4566636085510254
0.11175429995637387,2.561047077178955,3.502342939376831,4.734907150268555,5.558887004852295,4.538239479064941,6.640400409698486,9.470973014831543,3.8274147510528564,3.881159543991089
0.1148900999687612,0.8802805542945862,2.8716278076171875,5.209161758422852,4.722085475921631,3.0631418228149414,7.160953998565674,9.182683944702148,3.4125564098358154,3.944260597229004
0.11762609996367246,-1.0373104810714722,1.9573180675506592,5.212423801422119,3.5509655475616455,1.3383986949920654,7.234393119812012,8.446137428283691,2.7833619117736816,3.6186728477478027
0.12063359993044287,-2.8251798152923584,0.9196019768714905,4.814539432525635,2.194923162460327,-0.3527466654777527,6.900998115539551,7.43619966506958,2.099371910095215,2.947093963623047
0.12359289999585599,-4.144474983215332,-0.0667966827750206,4.161586761474609,0.8221097588539124,-1.752854824066162,6.257347583770752,6.364528656005859,1.5249677896499634,2.0404210090637207
0.12665280001237988,-4.782302379608154,-0.855803906917572,3.429089069366455,-0.4175996482372284,-2.694066286087036,5.429915904998779,5.427940845489502,1.18484365940094,1.0507352352142334
0.12971409992314875,-4.6996941566467285,-1.3576276302337646,2.7827746868133545,-1.4147993326187134,-3.1269161701202393,4.5527119636535645,4.766504287719727,1.1377959251403809,0.14388085901737213
0.13259569997899234,-4.0305328369140625,-1.5533124208450317,2.3286542892456055,-2.11715030670166,-3.1201741695404053,3.7380447387695312,4.436588764190674,1.369118571281433,-0.5533902645111084
0.13557069993112236,-3.025141477584839,-1.482648491859436,2.0981485843658447,-2.521049976348877,-2.82262921333313,3.0650033950805664,4.41226053237915,1.8076258897781372,-0.9698230624198914
0.1385909999953583,-1.9702959060668945,-1.2233800888061523,2.0507140159606934,-2.6590158939361572,-2.412663698196411,2.5726025104522705,4.602236270904541,2.346186399459839,-1.1046024560928345
0.14105219999328256,-1.1045384407043457,-0.8620914220809937,2.099097728729248,-2.58034086227417,-2.048222541809082,2.264831066131592,4.883016586303711,2.8753914833068848,-1.0186030864715576
0.1441371999680996,-0.5720555782318115,-0.47905808687210083,2.1379470825195312,-2.3406434059143066,-1.832926869392395,2.1134538650512695,5.123682975769043,3.2965831756591797,-0.8115103840827942
0.14705619995947927,-0.4021753668785095,-0.13513000309467316,2.0841023921966553,-1.992719292640686,-1.8018954992294312,2.070796489715576,5.212362766265869,3.5380210876464844,-0.5827459692955017
0.15006179991178215,-0.5240688323974609,0.12919872999191284,1.8934730291366577,-1.5841845273971558,-1.9216495752334595,2.076132297515869,5.070335865020752,3.558417320251465,-0.4054265320301056
0.15304080001078546,-0.8104364275932312,0.28953251242637634,1.5729585886001587,-1.1596726179122925,-2.11114764213562,2.06667160987854,4.657276630401611,3.3453519344329834,-0.3017478585243225
0.1560324999736622,-1.1130820512771606,0.33620819449424744,1.1704939603805542,-0.7586822509765625,-2.2599499225616455,1.9843560457229614,3.9730875492095947,2.9184205532073975,-0.2437726855278015
0.15910069993697107,-1.3032548427581787,0.2663375437259674,0.7460373044013977,-0.4187059700489044,-2.261106491088867,1.776323676109314,3.048232078552246,2.3230559825897217,-0.17784854769706726
0.16185549995861948,-1.2992925643920898,0.08046925067901611,0.3390839099884033,-0.17534606158733368,-2.038930654525757,1.3950144052505493,1.9322160482406616,1.6209503412246704,-0.06964944303035736
0.16445029992610216,-1.0759060382843018,-0.2183867245912552,-0.05054561793804169,-0.0584636814892292,-1.5672295093536377,0.7983397245407104,0.6800162196159363,0.8779875040054321,0.08071105927228928
0.16750380001030862,-0.6715710759162903,-0.6315285563468933,-0.47836583852767944,-0.093718521296978,-0.8885663747787476,-0.053223397582769394,-0.6636929512023926,0.1427399069070816,0.2049364596605301
0.17039420001674443,-0.19595858454704285,-1.1679915189743042,-1.0457030534744263,-0.30416983366012573,-0.12376081198453903,-1.1943914890289307,-2.075089931488037,-0.5696356296539307,0.1778368502855301
0.1733812999445945,0.18831048905849457,-1.841274380683899,-1.868563175201416,-0.7055665254592896,0.54914790391922,-2.6452667713165283,-3.551482915878296,-1.2866729497909546,-0.1506226509809494
0.1766029999125749,0.31483525037765503,-2.6557693481445312,-3.0363826751708984,-1.2941100597381592,0.9457598924636841,-4.3941802978515625,-5.094122886657715,-2.0614757537841797,-0.9039083123207092
0.1794175999239087,0.04626359045505524,-3.5934157371520996,-4.568380355834961,-2.0388851165771484,0.9171056747436523,-6.379562854766846,-6.689116954803467,-2.950761079788208,-2.1223607063293457
0.18207300000358373,-0.6681283116340637,-4.594911575317383,-6.386724948883057,-2.870734930038452,0.4085165560245514,-8.47686767578125,-8.281322479248047,-3.9781012535095215,-3.7292559146881104
0.1850769999437034,-1.7461729049682617,-5.5508832931518555,-8.313129425048828,-3.680087089538574,-0.5028154850006104,-10.498631477355957,-9.758216857910156,-5.100460052490234,-5.529023170471191
0.18797249998897314,-2.962693929672241,-6.310819625854492,-10.101173400878906,-4.3276214599609375,-1.6059743165969849,-12.217520713806152,-10.955342292785645,-6.194118022918701,-7.241883277893066
0.19050309993326664,-4.0107622146606445,-6.7157979011535645,-11.48709487915039,-4.6757283210754395,-2.6162290573120117,-13.407089233398438,-11.688714981079102,-7.085164546966553,-8.568077087402344
0.19369839993305504,-4.566843509674072,-6.6369805335998535,-12.254478454589844,-4.622796058654785,-3.238520622253418,-13.89083194732666,-11.797724723815918,-7.582670211791992,-9.26647663116455
0.19650259998161346,-4.3903303146362305,-6.019519805908203,-12.28882884979248,-4.137323379516602,-3.258159637451172,-13.587990760803223,-11.193694114685059,-7.540611267089844,-9.218189239501953
0.1994882000144571,-3.4254021644592285,-4.916114807128906,-11.613399505615234,-3.2847180366516113,-2.619858741760254,-12.54453182220459,-9.901188850402832,-6.916059970855713,-8.461515426635742
0.20201179990544915,-1.8231457471847534,-3.482564926147461,-10.377714157104492,-2.2181923389434814,-1.4433484077453613,-10.924942016601562,-8.062582015991211,-5.78859281539917,-7.180055141448975
0.20496949995867908,0.08724236488342285,-1.9492928981781006,-8.823517799377441,-1.1493289470672607,0.0034160111099481583,-8.979238510131836,-5.914484024047852,-4.349844455718994,-5.663576602935791
0.2079954999499023,1.880548119544983,-0.5712690353393555,-7.230544090270996,-0.3018680214881897,1.3718167543411255,-6.990426063537598,-3.74086594581604,-2.860323667526245,-4.2381720542907715
0.2110358999343589,3.167128086090088,0.44287291169166565,-5.835676193237305,0.15414078533649445,2.34450101852417,-5.199862480163574,-1.803019642829895,-1.5776052474975586,-3.17655348777771
0.21397129993420094,3.699305295944214,0.9791474342346191,-4.785085678100586,0.14539074897766113,2.7160139083862305,-3.7596256732940674,-0.2845050096511841,-0.6925876140594482,-2.639716625213623
0.2169662999222055,3.44107723236084,1.0448541641235352,-4.107965469360352,-0.2823522388935089,2.453221321105957,-2.7050962448120117,0.7437349557876587,-0.28286686539649963,-2.6455931663513184
0.21996079990640283,2.5557503700256348,0.7592011094093323,-3.720200300216675,-0.9785988926887512,1.6854228973388672,-1.9603970050811768,1.3247755765914917,-0.30699217319488525,-3.0687336921691895
0.2229297999292612,1.340156078338623,0.31539061665534973,-3.456906318664551,-1.7257533073425293,0.6570637226104736,-1.3737189769744873,1.5902178287506104,-0.6272020936012268,-3.6724822521209717
0.2260270999977365,0.11333288252353668,-0.0760575532913208,-3.129377841949463,-2.2983381748199463,-0.35708945989608765,-0.7704952955245972,1.711759328842163,-1.0608222484588623,-4.1736063957214355
0.22894359997007996,-0.881977379322052,-0.24145933985710144,-2.573585033416748,-2.5189759731292725,-1.133986234664917,-0.0012371185002848506,1.8532999753952026,-1.4330894947052002,-4.30973482131958
0.2319870999781415,-1.538586974143982,-0.0852644070982933,-1.6998077630996704,-2.299086809158325,-1.556278109550476,1.0154800415039062,2.129181385040283,-1.6180089712142944,-3.907482147216797
0.23489359999075532,-1.8921109437942505,0.39652958512306213,-0.5057492852210999,-1.6524139642715454,-1.6309785842895508,2.281801462173462,2.585437297821045,-1.5592647790908813,-2.9158172607421875
0.23787089996039867,-2.0669500827789307,1.127420425415039,0.9304797053337097,-0.6801488995552063,-1.4559506177902222,3.7281432151794434,3.201014518737793,-1.264609694480896,-1.4222139120101929
0.2409942999947816,-2.210202693939209,1.9769245386123657,2.4727728366851807,0.45726799964904785,-1.1763956546783447,5.2368950843811035,3.904906749725342,-0.7886278629302979,0.36808574199676514
0.24410449992865324,-2.4206953048706055,2.799281120300293,3.9681589603424072,1.5855684280395508,-0.9234002232551575,6.677135944366455,4.60303258895874,-0.20560301840305328,2.1883296966552734
0.24698549997992814,-2.7120914459228516,3.468641519546509,5.287404537200928,2.553123712539673,-0.7752583622932434,7.937331199645996,5.207479953765869,0.41076207160949707,3.7703845500946045
0.24995369999669492,-3.0196382999420166,3.902296543121338,6.348320960998535,3.257648229598999,-0.7408584952354431,8.943965911865234,5.655717372894287,0.9990347027778625,4.907608985900879
0.25296959991101176,-3.243833541870117,4.066186428070068,7.122369289398193,3.6510937213897705,-0.7802164554595947,9.664851188659668,5.916796684265137,1.507957100868225,5.495113849639893
0.25604329991620034,-3.2862846851348877,3.977468252182007,7.6295857429504395,3.740797758102417,-0.8198867440223694,10.105023384094238,5.994891166687012,1.9009031057357788,5.544461250305176
0.2592089999234304,-3.104755163192749,3.6854231357574463,7.915781497955322,3.5686538219451904,-0.7987642288208008,10.288717269897461,5.9173407554626465,2.146174907684326,5.161106109619141
0.26220050000119954,-2.7279114723205566,3.2551443576812744,8.026323318481445,3.192448139190674,-0.6867727041244507,10.240935325622559,5.721530437469482,2.218400478363037,4.4961676597595215
0.2653151999693364,-2.2354655265808105,2.7556638717651367,7.992010116577148,2.675021171569824,-0.48810523748397827,9.978958129882812,5.447815895080566,2.111600637435913,3.703617811203003
0.2682644999586046,-1.7339692115783691,2.245807647705078,7.817156791687012,2.0711402893066406,-0.24041083455085754,9.506311416625977,5.13065242767334,1.8428621292114258,2.888697624206543
0.27085189998615533,-1.3258986473083496,1.769202470779419,7.48608922958374,1.4263007640838623,0.0015271512093022466,8.818964004516602,4.794502258300781,1.4564852714538574,2.0988283157348633
0.27380879991687834,-1.0702937841415405,1.356009840965271,6.97874641418457,0.7831385135650635,0.19055715203285217,7.917624473571777,4.458216667175293,1.0266247987747192,1.3338326215744019
0.2768870999570936,-0.9660986065864563,1.0275057554244995,6.29060173034668,0.18739882111549377,0.30673590302467346,6.82305908203125,4.140984535217285,0.6516724228858948,0.5762680768966675
0.2798123999964446,-0.9712596535682678,0.7911873459815979,5.435980796813965,-0.3161219656467438,0.3543888032436371,5.574731826782227,3.856341600418091,0.4277499318122864,-0.18435098230838776
0.2828763999277726,-0.9734130501747131,-2.8487589359283447,-3.334484815597534,-4.579019069671631,-1.128720998764038,-3.665459394454956,-2.1557421684265137,-1.6783151626586914,-3.457244873046875
0.28588519990444183,-0.22128254175186157,-1.6915732622146606,-1.7704554796218872,-3.7987070083618164,-0.5386199355125427,-2.1953186988830566,-0.37647974491119385,0.06011761352419853,-2.6045706272125244
0.2887913999147713,0.45836141705513,-0.5109515190124512,-0.31989073753356934,-2.8987720012664795,0.046998925507068634,-0.6824561357498169,1.4075509309768677,1.7746896743774414,-1.8062422275543213
0.2916129999794066,1.1128056049346924,0.6466018557548523,0.9255776405334473,-1.918584942817688,0.625211238861084,0.7855722904205322,3.0952723026275635,3.4104363918304443,-1.0551574230194092
0.2946306999074295,1.7927106618881226,1.7608319520950317,1.9642691612243652,-0.877744197845459,1.2072378396987915,2.1553800106048584,4.620752811431885,4.932397842407227,-0.2926919162273407
0.29681639990303665,2.525367498397827,2.825904369354248,2.86313533782959,0.21365392208099365,1.8054341077804565,3.4023208618164062,5.949188232421875,6.319159507751465,0.5510197877883911
0.29979499999899417,3.3038783073425293,3.837449073791504,3.712625741958618,1.3403264284133911,2.425844192504883,4.51645040512085,7.063465595245361,7.553642749786377,1.511446237564087
0.30281609995290637,4.087226390838623,4.776593208312988,4.57601261138916,2.463930130004883,3.0589263439178467,5.484370708465576,7.946734428405762,8.617483139038086,2.5570976734161377
0.3057813999475911,4.812351703643799,5.604599952697754,5.45759391784668,3.518855333328247,3.6779863834381104,6.280991554260254,8.57270622253418,9.487664222717285,3.5857093334198
0.3091432999353856,5.408358573913574,6.260098934173584,6.288769245147705,4.4157257080078125,4.239624500274658,6.8659257888793945,8.903053283691406,10.136975288391113,4.440405368804932
0.3118214999558404,5.824120044708252,6.673882484436035,6.955595970153809,5.0650954246521,4.697956562042236,7.196093559265137,8.900999069213867,10.546589851379395,4.9675421714782715
0.31482269999105483,6.033695697784424,6.781912803649902,7.34197998046875,5.399106025695801,5.00847053527832,7.241672515869141,8.54673957824707,10.707291603088379,5.065013885498047
0.31792309996671975,6.0426025390625,6.53868293762207,7.364619255065918,5.387904644012451,5.141845226287842,6.993875026702881,7.848229885101318,10.622286796569824,4.705704689025879
0.32110820000525564,5.8781514167785645,5.926571369171143,7.00308084487915,5.0490217208862305,5.084046840667725,6.471480846405029,6.844727993011475,10.30066967010498,3.9578335285186768
0.32407480000983924,5.5732808113098145,4.96000862121582,6.307601451873779,4.438353061676025,4.835305213928223,5.716977119445801,5.600041389465332,9.74903392791748,2.9607815742492676
0.327294799964875,5.147077560424805,3.6837430000305176,5.377607822418213,3.632753372192383,4.4017744064331055,4.786163806915283,4.18864631652832,8.96140193939209,1.885169506072998
0.3300906999502331,4.601143836975098,2.173515796661377,4.336866855621338,2.7144689559936523,3.79541015625,3.741511344909668,2.6855714321136475,7.924615383148193,0.8952257633209229
0.3330359999090433,3.9146416187286377,0.5312156677246094,3.305615186691284,1.7562848329544067,3.029660701751709,2.6464619636535645,1.1594362258911133,6.623598098754883,0.1171071007847786
0.3360298000043258,3.068012237548828,-1.1135904788970947,2.3913965225219727,0.8249558806419373,2.1325643062591553,1.5721145868301392,-0.31879016757011414,5.071616172790527,-0.36594250798225403
0.3390646999469027,2.048203706741333,-2.616924285888672,1.6802608966827393,-0.01937038265168667,1.1434643268585205,0.5949819684028625,-1.674817442893982,3.318976402282715,-0.5138046145439148
0.34162510000169277,0.87455153465271,-3.832587957382202,1.2386460304260254,-0.7165837287902832,0.12594148516654968,-0.20255517959594727,-2.8245978355407715,1.4677963256835938,-0.319997638463974
0.3447759000118822,-0.390192449092865,-4.635682106018066,1.1087400913238525,-1.2080610990524292,-0.8342955708503723,-0.743854820728302,-3.681011915206909,-0.33474966883659363,0.19159948825836182
0.3476386999245733,-1.649303913116455,-4.949102401733398,1.293096899986267,-1.4481828212738037,-1.6433392763137817,-0.9781341552734375,-4.1710734367370605,-1.925199270248413,0.958812952041626
0.350628099986352,-2.7813873291015625,-4.760465621948242,1.742390751838684,-1.4183380603790283,-2.2143502235412598,-0.8987386226654053,-4.255372524261475,-3.155609607696533,1.8754796981811523
0.3536366999614984,-3.6673808097839355,-4.131401538848877,2.3406717777252197,-1.1432440280914307,-2.4917032718658447,-0.5589906573295593,-3.9481325149536133,-3.9326705932617188,2.7865209579467773
0.3565946000162512,-4.207218647003174,-3.1815662384033203,2.918105363845825,-0.689808189868927,-2.4596734046936035,-0.0657457560300827,-3.318528890609741,-4.236161231994629,3.509028434753418
0.35969359998125583,-4.341730117797852,-2.0650634765625,3.281916618347168,-0.15909269452095032,-2.1510133743286133,0.43951645493507385,-2.481966018676758,-4.124354839324951,3.8646671772003174
0.3625645999563858,-4.064011096954346,-0.9348209500312805,3.264565944671631,0.33811745047569275,-1.6400113105773926,0.8174995183944702,-1.5741313695907593,-3.71854567527771,3.7274444103240967
0.3656021999195218,-3.4190356731414795,0.08965899050235748,2.775094985961914,0.7114284038543701,-1.0221346616744995,0.9672400951385498,-0.7185543179512024,-3.1684672832489014,3.0647287368774414
0.36854850000236183,-2.5007481575012207,0.9409261345863342,1.8345469236373901,0.9137008190155029,-0.39709433913230896,0.8553924560546875,-0.0009660263895057142,-2.6211841106414795,1.9576568603515625
0.3710687999846414,-1.4429608583450317,1.6032167673110962,0.5799323320388794,0.9523628950119019,0.1467740833759308,0.5232477188110352,0.5425992608070374,-2.19364070892334,0.5932888388633728
0.37406199995893985,-0.40630343556404114,2.093313217163086,-0.7750202417373657,0.8763793110847473,0.5409640669822693,0.0695822462439537,0.9192588925361633,-1.9638211727142334,-0.7913932204246521
0.377180999959819,0.44207313656806946,2.4375429153442383,-1.9975441694259644,0.7571756839752197,0.7390070557594299,-0.3824875056743622,1.1607133150100708,-1.9696012735366821,-1.963842749595642
0.3802146000089124,0.9508419632911682,2.64897084236145,-2.900230884552002,0.6606219410896301,0.7133225798606873,-0.7254965305328369,1.3006339073181152,-2.218674421310425,-2.757188558578491
0.3830702999839559,1.0110390186309814,2.716900110244751,-3.3933162689208984,0.6234991550445557,0.4533374607563019,-0.9010055661201477,1.3575794696807861,-2.6985435485839844,-3.114598035812378
0.3861295999959111,0.5768494009971619,2.613208532333374,-3.4964284896850586,0.6452886462211609,-0.03250199928879738,-0.9146243333816528,1.3296613693237305,-3.3823206424713135,-3.0889933109283447
0.38904259994160384,-0.3150937557220459,2.3095688819885254,-3.322662115097046,0.6930996775627136,-0.7118439674377441,-0.8325523734092712,1.200542688369751,-4.2277350425720215,-2.8188748359680176
0.3916895999573171,-1.5506606101989746,1.7988885641098022,-3.0325708389282227,0.7180005311965942,-1.5262070894241333,-0.7571393847465515,0.9561333656311035,-5.174308776855469,-2.4801950454711914
0.3946711999597028,-2.951812744140625,1.111769676208496,-2.7829339504241943,0.6753506064414978,-2.389416217803955,-0.7948737740516663,0.598033607006073,-6.142941951751709,-2.233994483947754
0.3977288999594748,-4.31292724609375,0.31421348452568054,-2.6949117183685303,0.537510335445404,-3.1992876529693604,-1.0324774980545044,0.1464230865240097,-7.045487403869629,-2.193676710128784
0.4002866999944672,-5.449222564697266,-0.5076165199279785,-2.831939697265625,0.2979438900947571,-3.861372470855713,-1.5173454284667969,-0.3669107258319855,-7.804595947265625,-2.4053235054016113
0.4032766999443993,-6.236125946044922,-1.2682595252990723,-3.202726125717163,-0.030011558905243874,-4.306514739990234,-2.2491202354431152,-0.9098466634750366,-8.372249603271484,-2.8499388694763184
0.40625559992622584,-6.629230976104736,-1.9014135599136353,-3.7721939086914062,-0.4168985188007355,-4.505667209625244,-3.181807518005371,-1.458646297454834,-8.739463806152344,-3.4578166007995605
0.4093533999985084,-6.655455112457275,-2.365844964981079,-4.471752643585205,-0.8186110854148865,-4.464591979980469,-4.230234622955322,-1.9979108572006226,-8.929981231689453,-4.123354911804199
0.4119654999813065,-6.391156196594238,-2.6402204036712646,-5.206204414367676,-1.1794970035552979,-4.2145538330078125,-5.278549671173096,-2.510990858078003,-8.982656478881836,-4.722658157348633
0.41492589993868023,-5.9213104248046875,-2.711874485015869,-5.8626203536987305,-1.431856393814087,-3.7888805866241455,-6.197718620300293,-2.9690675735473633,-8.925530433654785,-5.133336544036865
0.4180984999984503,-5.30912446975708,-2.5691616535186768,-6.327038764953613,-1.508162498474121,-3.2090306282043457,-6.867440223693848,-3.324650287628174,-8.756099700927734,-5.259159088134766
0.42095569998491555,-4.576897144317627,-2.1980366706848145,-6.501544952392578,-1.3509418964385986,-2.476238250732422,-7.19676399230957,-3.5145092010498047,-8.431705474853516,-5.045517444610596
0.42396049993112683,-3.718799352645874,-1.5983558893203735,-6.337558746337891,-0.9371458292007446,-1.5860702991485596,-7.148105621337891,-3.4793572425842285,-7.886929035186768,-4.509850025177002
0.42711759998928756,-2.725062847137451,-0.800611138343811,-5.862087249755859,-0.2943505048751831,-0.5490099787712097,-6.750710964202881,-3.188469886779785,-7.060286521911621,-3.7494800090789795
0.42998219991568476,-1.6108218431472778,0.12157215923070908,-5.179935932159424,0.4949612319469452,0.5883250832557678,-6.095049858093262,-2.657780647277832,-5.926806926727295,-2.924884557723999
0.432952499948442,-0.4330984652042389,1.053634524345398,-4.451157093048096,1.3047468662261963,1.7363979816436768,-5.3091511726379395,-1.9541162252426147,-4.516684532165527,-2.2257139682769775
0.4359593999106437,0.7019611597061157,1.8557015657424927,-3.848483085632324,1.9908639192581177,2.7659928798675537,-4.526968002319336,-1.184907078742981,-2.924454927444458,-1.8172494173049927
0.43889639992266893,1.664530634880066,2.3954195976257324,-3.498072624206543,2.4272055625915527,3.5358967781066895,-3.8513832092285156,-0.47184625267982483,-1.2880730628967285,-1.7835633754730225
0.44209149992093444,2.331467628479004,2.5770018100738525,-3.4368271827697754,2.533914804458618,3.925283193588257,-3.3342628479003906,0.07504879683256149,0.23690517246723175,-2.094547986984253
0.4449758999980986,2.6128647327423096,2.362593173980713,-3.5926895141601562,2.292875051498413,3.859489917755127,-2.97269344329834,0.3762207627296448,1.5069361925125122,-2.6001248359680176
0.44792529998812824,2.4759292602539062,1.7782773971557617,-3.8076868057250977,1.7454191446304321,3.329381227493286,-2.726083517074585,0.3903082609176636,2.416905403137207,-3.0681686401367188
0.45085389993619174,1.9570316076278687,0.904033899307251,-3.886697769165039,0.9775683283805847,2.3964734077453613,-2.5403759479522705,0.1126992404460907,2.917553424835205,-3.2487988471984863
0.45382299995981157,1.1533703804016113,-0.14610788226127625,-3.6608803272247314,0.09617108851671219,1.1794469356536865,-2.370633602142334,-0.4304001033306122,3.0212206840515137,-2.951288938522339
0.45682899991516024,0.20857378840446472,-1.240020751953125,-3.0337400436401367,-0.7842196822166443,-0.16230565309524536,-2.188030958175659,-1.183342695236206,2.802030324935913,-2.0930254459381104
0.4604772999882698,-0.6998130083084106,-2.23891544342041,-1.9983446598052979,-1.5481030941009521,-1.4469687938690186,-1.9706544876098633,-2.0567750930786133,2.3906846046447754,-0.7175793051719666
0.46408029994927347,-1.387661099433899,-3.009218454360962,-0.6300786733627319,-2.0833139419555664,-2.493263006210327,-1.6910330057144165,-2.9292237758636475,1.9565800428390503,1.0191078186035156
0.46683419996406883,-1.6942737102508545,-3.438688039779663,0.9403729438781738,-2.290025234222412,-3.1466617584228516,-1.3148984909057617,-3.6616711616516113,1.677397608757019,2.892892837524414
0.46981749997939914,-1.5260491371154785,-3.464569091796875,2.5506129264831543,-2.1044888496398926,-3.3149659633636475,-0.818488359451294,-4.1348347663879395,1.6882468461990356,4.65816068649292
0.47283759992569685,-0.8908497095108032,-3.1026828289031982,4.030101776123047,-1.528932809829712,-2.9956822395324707,-0.2171160876750946,-4.294169902801514,2.0353617668151855,6.09208869934082
0.47596189996693283,0.07597637921571732,-2.474008321762085,5.202937602996826,-0.6620597839355469,-2.297983169555664,0.3998235762119293,-4.194014549255371,2.6371686458587646,7.014556407928467
0.4787759999744594,1.1220788955688477,-1.8009036779403687,5.897710800170898,0.2940869927406311,-1.435245156288147,0.8633140921592712,-4.008114814758301,3.2848970890045166,7.30291748046875
0.48113470000680536,1.9291174411773682,-1.3666777610778809,5.967623233795166,1.0636215209960938,-0.683341383934021,0.9551817774772644,-3.993910074234009,3.6886746883392334,6.896790981292725
0.4842157999519259,2.1940555572509766,-1.440500020980835,5.320683002471924,1.361563801765442,-0.31133702397346497,0.4743320643901825,-4.412919521331787,3.563063383102417,5.804204940795898
0.4870893999468535,1.7209335565567017,-2.1852128505706787,3.965118169784546,0.9811820983886719,-0.5038236379623413,-0.6766098141670227,-5.426756858825684,2.7293789386749268,4.115149021148682
0.490118799963966,0.5073350667953491,-3.5789153575897217,2.0431485176086426,-0.1231485977768898,-1.2874820232391357,-2.420743465423584,-7.0070481300354,1.2048869132995605,2.0106542110443115
0.4931568999309093,-1.240221619606018,-5.393570423126221,-0.17061521112918854,-1.8002569675445557,-2.513845443725586,-4.489726543426514,-8.906973838806152,-0.7750585079193115,-0.2501550018787384
0.49608239997178316,-3.1346755027770996,-7.232544422149658,-2.30967116355896,-3.720656394958496,-3.8836987018585205,-6.471260070800781,-10.70220947265625,-2.7949016094207764,-2.361558437347412
0.4990777999628335,-4.709242820739746,-8.634724617004395,-3.999683141708374,-5.456837177276611,-5.029547214508057,-7.916190147399902,-11.905217170715332,-4.36967134475708,-4.029045104980469
0.5017045999411494,-5.540743350982666,-9.20229434967041,-4.948825359344482,-6.600804805755615,-5.618318557739258,-8.463129997253418,-12.106918334960938,-5.081027507781982,-5.034032821655273
0.5046811999054626,-5.370133876800537,-8.720657348632812,-5.032692909240723,-6.87872314453125,-5.448837757110596,-7.949769496917725,-11.107690811157227,-4.703023910522461,-5.287708759307861
0.5076893999939784,-4.165476322174072,-7.2176127433776855,-4.31846809387207,-6.223142623901367,-4.502050876617432,-6.453240394592285,-8.97720718383789,-3.2636878490448,-4.8465375900268555
0.5107434999663383,-2.1382968425750732,-4.9580535888671875,-3.043210983276367,-4.790571212768555,-2.948566436767578,-4.262825965881348,-6.039111614227295,-1.0424768924713135,-3.8977928161621094
0.5136859999038279,0.32408469915390015,-2.358874559402466,-1.5339624881744385,-2.9044864177703857,-1.086648941040039,-1.7810606956481934,-2.769124984741211,1.5162274837493896,-2.698610782623291
0.5166924999793991,2.7564523220062256,0.1254635751247406,-0.11210018396377563,-0.9619209170341492,0.7363061904907227,0.5949140787124634,0.3385653793811798,3.9240236282348633,-1.5076220035552979
0.5196753999916837,4.721165180206299,2.1173501014709473,0.9927175641059875,0.6692377924919128,2.20878005027771,2.5789854526519775,2.8974783420562744,5.7651686668396,-0.5209159851074219
0.5226923999143764,5.902424335479736,3.3955750465393066,1.6864513158798218,1.7334672212600708,3.1200644969940186,4.05063009262085,4.707493305206299,6.785984039306641,0.1575889140367508
0.5258003999479115,6.158947467803955,3.9204742908477783,2.0097298622131348,2.1305391788482666,3.3886516094207764,5.048361778259277,5.767505645751953,6.9275689125061035,0.5244905352592468
0.5286684999009594,5.533099174499512,3.8084421157836914,2.0973408222198486,1.911912441253662,3.057137966156006,5.715935707092285,6.229658603668213,6.30736780166626,0.6492734551429749
0.5316221999237314,4.2222065925598145,3.270784378051758,2.116487741470337,1.242442011833191,2.261009454727173,6.225068092346191,6.3189239501953125,5.163331031799316,0.6387519240379333
0.5346488999202847,2.523235559463501,2.545276165008545,2.2126433849334717,0.34489408135414124,1.187896490097046,6.710824489593506,6.254711627960205,3.7859747409820557,0.6010648012161255
0.5376201999606565,0.7668922543525696,1.8371737003326416,2.4694762229919434,-0.5580970644950867,0.03605744242668152,7.231588363647461,6.194432258605957,2.4515860080718994,0.6192737221717834
0.5397781999781728,-0.7416408061981201,1.2917821407318115,2.9044406414031982,-1.2826751470565796,-1.0147784948349,7.775143623352051,6.22058629989624,1.3815792798995972,0.7496148347854614
0.5429250999586657,-1.7801101207733154,0.9857751727104187,3.4828693866729736,-1.7096256017684937,-1.82852303981781,8.28676700592041,6.354414939880371,0.7138974070549011,1.0213466882705688
0.5458778999745846,-2.242435932159424,0.9357220530509949,4.134098529815674,-1.796862244606018,-2.3293089866638184,8.703598022460938,6.583791732788086,0.49542075395584106,1.4315115213394165
0.5488275999668986,-2.1451914310455322,1.115332007408142,4.775339603424072,-1.5718404054641724,-2.5036981105804443,8.984312057495117,6.890098571777344,0.6885163187980652,1.9515032768249512
0.5513805999653414,-1.6132557392120361,1.4720171689987183,5.327208042144775,-1.119960069656372,-2.398529291152954,9.118152618408203,7.259640216827393,1.1855733394622803,2.524413585662842
0.5543519000057131,-0.8384628891944885,1.9439640045166016,5.727257251739502,-0.5579961538314819,-2.100881814956665,9.12353515625,7.686114311218262,1.8395586013793945,3.0730130672454834
0.5573121999623254,-0.022452231496572495,2.469219923019409,5.9354329109191895,-0.006270143203437328,-1.7118586301803589,9.029328346252441,8.155999183654785,2.495826244354248,3.5155789852142334
0.5603693999582902,0.6728155612945557,2.989614248275757,5.932845115661621,0.4338471293449402,-1.3192617893218994,8.854809761047363,8.633605003356934,3.0227978229522705,3.7750909328460693
0.5633221999742091,1.1602070331573486,3.4520158767700195,5.7178778648376465,0.6992523074150085,-0.9764832854270935,8.594027519226074,9.051283836364746,3.3351824283599854,3.7995710372924805
0.5662891999818385,1.4310126304626465,3.803450107574463,5.297774314880371,0.7688823342323303,-0.6989860534667969,8.207776069641113,9.307828903198242,3.4002633094787598,3.5722715854644775
0.5693198000080884,1.529712200164795,3.984806537628174,4.672504425048828,0.6529609560966492,-0.47801148891448975,7.624568939208984,9.276448249816895,3.225759744644165,3.102579355239868
0.5720110000111163,1.5128543376922607,3.925755739212036,3.8230113983154297,0.3749412000179291,-0.3040007948875427,6.750301361083984,8.822455406188965,2.8378398418426514,2.4119513034820557
0.5752860999200493,1.4092813730239868,3.5478620529174805,2.7055652141571045,-0.049395181238651276,-0.19023245573043823,5.487299919128418,7.827095985412598,2.2577853202819824,1.5138627290725708
0.5780852999305353,1.196364164352417,2.7764477729797363,1.2608256340026855,-0.6209436655044556,-0.18519960343837738,3.7579963207244873,6.213395595550537,1.4852858781814575,0.40376192331314087
0.5808536999393255,0.8099614977836609,1.5653327703475952,-0.554720401763916,-1.3506343364715576,-0.3577883839607239,1.538537859916687,3.9743804931640625,0.5060357451438904,-0.9295098781585693
0.5838699999731034,0.1715695708990097,-0.08271323144435883,-2.7406182289123535,-2.245515823364258,-0.7752467393875122,-1.1231640577316284,1.1854583024978638,-0.6950579881668091,-2.487267255783081
0.5869039999088272,-0.7608087062835693,-2.0934653282165527,-5.222995281219482,-3.2852232456207275,-1.4625766277313232,-4.094758987426758,-1.9913548231124878,-2.103062629699707,-4.23232364654541
0.5898956999881193,-1.9605754613876343,-4.3217339515686035,-7.842968463897705,-4.407664775848389,-2.380162239074707,-7.170873165130615,-5.326781272888184,-3.655956745147705,-6.070004463195801
0.5929314999375492,-3.3204216957092285,-6.568449020385742,-10.379032135009766,-5.511500835418701,-3.4187231063842773,-10.107796669006348,-8.56035041809082,-5.241808891296387,-7.853564262390137
0.595777599955909,-4.67596960067749,-8.615090370178223,-12.586257934570312,-6.473623752593994,-4.424482345581055,-12.670477867126465,-11.448182106018066,-6.71841287612915,-9.405298233032227
0.5988143999129534,-5.842369556427002,-10.268877029418945,-14.25696086883545,-7.1802287101745605,-5.235355377197266,-14.685879707336426,-13.809113502502441,-7.945237636566162,-10.56494140625
0.601312999962829,-6.680355548858643,-11.40787124633789,-15.27753734588623,-7.5659074783325195,-5.73715877532959,-16.089902877807617,-15.566125869750977,-8.833039283752441,-11.236574172973633
0.6043352999258786,-7.139336585998535,-12.007822036743164,-15.662664413452148,-7.637361526489258,-5.8984761238098145,-16.943693161010742,-16.760360717773438,-9.374499320983887,-11.42049789428711
0.6072955999989063,-7.273048400878906,-12.143622398376465,-15.550559997558594,-7.476535797119141,-5.781167984008789,-17.417030334472656,-17.53450584411621,-9.652556419372559,-11.215781211853027
0.610381199978292,-7.2207183837890625,-11.964125633239746,-15.161659240722656,-7.219489574432373,-5.5193305015563965,-17.74009132385254,-18.090396881103516,-9.81932258605957,-10.788758277893066
0.6133374999044463,-7.161210536956787,-11.648018836975098,-14.735479354858398,-7.016095161437988,-5.276667594909668,-18.13899040222168,-18.62912940979004,-10.04837703704834,-10.321770668029785
0.6162772999377921,-7.247086048126221,-11.348831176757812,-14.454773902893066,-6.980456352233887,-5.187842845916748,-18.764299392700195,-19.28604507446289,-10.472232818603516,-9.953177452087402
0.6192796999821439,-7.553565979003906,-11.152459144592285,-14.39437198638916,-7.154402256011963,-5.317647457122803,-19.645801544189453,-20.087923049926758,-11.130596160888672,-9.737044334411621
0.6219814999494702,-8.048955917358398,-11.052366256713867,-14.49984073638916,-7.48809289932251,-5.637211799621582,-20.678403854370117,-20.935869216918945,-11.941756248474121,-9.62943172454834
0.6250443999888375,-8.604843139648438,-10.955975532531738,-14.608034133911133,-7.8518171310424805,-6.036921977996826,-21.64849281311035,-21.629356384277344,-12.711211204528809,-9.50683307647705
0.628095299936831,-9.036540031433105,-10.719953536987305,-14.508199691772461,-8.07563591003418,-6.362476825714111,-22.29399299621582,-21.922815322875977,-13.182783126831055,-9.221270561218262
0.6309141999809071,-9.162505149841309,-10.200394630432129,-14.014205932617188,-7.999268054962158,-6.4664177894592285,-22.379037857055664,-21.59894561767578,-13.110006332397461,-8.6517972946167
0.6340925999684259,-8.867966651916504,-9.306251525878906,-13.031242370605469,-7.52642822265625,-6.259588718414307,-21.759227752685547,-20.53630828857422,-12.335249900817871,-7.756388187408447
0.6369123999029398,-8.136043548583984,-8.034149169921875,-11.592203140258789,-6.655550479888916,-5.735093593597412,-20.419952392578125,-18.75025177001953,-10.841967582702637,-6.589454174041748
0.6399017999647185,-7.061770439147949,-6.480719566345215,-9.853412628173828,-5.487690448760986,-4.975960731506348,-18.477012634277344,-16.396373748779297,-8.777059555053711,-5.291877746582031
0.6429885999532416,-5.820397853851318,-4.818545341491699,-8.05026912689209,-4.199960708618164,-4.126504421234131,-16.137161254882812,-13.72826862335205,-6.41627836227417,-4.050537109375
0.645947799901478,-4.616127967834473,-3.2475335597991943,-6.421006679534912,-2.9954352378845215,-3.3501110076904297,-13.632043838500977,-11.02608585357666,-4.095713138580322,-3.0362966060638428
0.6489347999449819,-3.620819568634033,-1.9358237981796265,-5.129734516143799,-2.0441267490386963,-2.780698537826538,-11.148277282714844,-8.515594482421875,-2.1228551864624023,-2.3483376502990723
0.6516254999442026,-2.9204227924346924,-0.9657787680625916,-4.210393905639648,-1.4341914653778076,-2.4788966178894043,-8.774301528930664,-6.302744388580322,-0.6908335089683533,-1.9846802949905396
0.6545441999332979,-2.487459897994995,-0.30719438195228577,-3.5534796714782715,-1.1465181112289429,-2.4142563343048096,-6.48166036605835,-4.3482255935668945,0.17120926082134247,-1.8389869928359985
0.6575711999321356,-2.190156936645508,0.1761454939842224,-2.9336819648742676,-1.0622525215148926,-2.473483085632324,-4.145973205566406,-2.487818956375122,0.5978994369506836,-1.7269673347473145
0.6604655999690294,-1.8307486772537231,0.6874086856842041,-2.080702066421509,-1.0016169548034668,-2.4917147159576416,-1.6003791093826294,-0.4934100806713104,0.8415245413780212,-1.4479764699935913
0.6634665000019595,-1.2099305391311646,1.4339497089385986,-0.759459912776947,-0.7800385355949402,-2.304079294204712,1.2976247072219849,1.8445342779159546,1.1883500814437866,-0.8369622230529785
0.6662880999501795,-0.18858346343040466,2.5616230964660645,1.1525368690490723,-0.2647307515144348,-1.793425440788269,4.6010026931762695,4.637471675872803,1.8688379526138306,0.1865111142396927
0.6693146999459714,1.260537028312683,4.107465744018555,3.6240549087524414,0.5839660167694092,-0.9292562007904053,8.240818977355957,7.851961612701416,2.986935615539551,1.5959124565124512
0.6718923000153154,3.036747694015503,5.982320785522461,6.473145484924316,1.7026276588439941,0.22143861651420593,12.026412010192871,11.306647300720215,4.493211269378662,3.2719640731811523
0.6748638999415562,4.925065040588379,7.986969470977783,9.40526294708252,2.939793825149536,1.5049831867218018,15.679094314575195,14.708104133605957,6.200280666351318,5.031067848205566
0.6780693999025971,6.6505818367004395,9.860257148742676,12.082108497619629,4.099252223968506,2.7229349613189697,18.891752243041992,17.724294662475586,7.846392631530762,6.668715000152588
0.6808356000110507,7.945613861083984,11.338781356811523,14.19307804107666,4.989137649536133,3.6817965507507324,21.393354415893555,20.061660766601562,9.171428680419922,7.998656749725342
0.6838630000129342,8.615886688232422,12.212433815002441,15.506864547729492,5.463599681854248,4.238868713378906,22.996150970458984,21.5261173248291,9.989641189575195,8.869705200195312
0.6868899000110105,8.586669921875,12.366923332214355,15.912038803100586,5.453423976898193,4.3343963623046875,23.6295223236084,22.058258056640625,10.233695983886719,9.186726570129395
0.6898914999328554,7.919159412384033,11.797510147094727,15.420015335083008,4.971312999725342,4.000476360321045,23.341665267944336,21.731054306030273,9.963045120239258,8.90556526184082
0.6928321999730542,6.792569637298584,10.602545738220215,14.150310516357422,4.100095748901367,3.3463094234466553,22.281034469604492,20.720394134521484,9.33509349822998,8.031819343566895
0.695787200005725,5.455431938171387,8.955465316772461,12.302539825439453,2.970405101776123,2.524785041809082,20.66318130493164,19.258628845214844,8.55434513092041,6.623388767242432
0.6987956999801099,4.17213773727417,7.073602676391602,10.12680435180664,1.7355728149414062,1.698933482170105,18.73553466796875,17.590898513793945,7.819703578948975,4.7966108322143555
0.7017295999685302,3.163677930831909,5.182092189788818,7.888423919677734,0.5478639006614685,1.0086989402770996,16.741052627563477,15.936866760253906,7.278203964233398,2.725827932357788
0.7047492999117821,2.58064341545105,3.489109754562378,5.841620445251465,-0.45415663719177246,0.5586292743682861,14.893675804138184,14.471895217895508,7.011600017547607,0.6374097466468811
0.7076983000151813,2.4818172454833984,2.1551902294158936,4.1879706382751465,-1.1639482975006104,0.40924203395843506,13.348803520202637,13.309883117675781,7.030109405517578,-1.2311491966247559
0.7104845999274403,2.836179494857788,1.2762163877487183,3.0510263442993164,-1.515818476676941,0.5789124965667725,12.188586235046387,12.497736930847168,7.285988807678223,-2.6687328815460205
0.7134242999600247,3.54500412940979,0.8718098402023315,2.4534714221954346,-1.4920594692230225,1.052448034286499,11.41425609588623,12.013482093811035,7.694882869720459,-3.540374517440796
0.7163200000068173,4.465045928955078,0.8794825077056885,2.311095714569092,-1.1293433904647827,1.7840310335159302,10.947546005249023,11.767155647277832,8.15169620513916,-3.8280131816864014
0.7193827999290079,5.427685260772705,1.1610419750213623,2.444851875305176,-0.5178319811820984,2.6939785480499268,10.641175270080566,11.604536056518555,8.537915229797363,-3.6346724033355713
0.7221044999314472,6.262270927429199,1.5277258157730103,2.621748447418213,0.21070843935012817,3.6726956367492676,10.310396194458008,11.329310417175293,8.731874465942383,-3.158926010131836
0.7251315999310464,6.8110198974609375,1.7706514596939087,2.6026296615600586,0.9011616706848145,4.582492351531982,9.763863563537598,10.73042106628418,8.612404823303223,-2.64509654045105
0.7280336999101564,6.9435014724731445,1.702417254447937,2.196857213973999,1.4015963077545166,5.271608352661133,8.842595100402832,9.621048927307129,8.072017669677734,-2.319582223892212
0.7309464999707416,6.573795318603516,1.1948702335357666,1.3053373098373413,1.5939449071884155,5.599611282348633,7.448606967926025,7.877681255340576,7.031711101531982,-2.329943895339966
0.7340032999636605,5.671268939971924,0.2011231780052185,-0.06407499313354492,1.4132323265075684,5.46302604675293,5.560218811035156,5.467256546020508,5.4587082862854,-2.722321033477783
0.736925599980168,4.270400047302246,-1.2363145351409912,-1.806186556816101,0.8611215949058533,4.824847221374512,3.231738328933716,2.457751512527466,3.382183074951172,-3.4406237602233887
0.7399600999196991,2.4671542644500732,-3.002389669418335,-3.751587152481079,0.0015140932518988848,3.7261950969696045,0.5763233304023743,-0.9935019016265869,0.8950703144073486,-4.360714435577393
0.742993799969554,0.4087986946105957,-4.936995506286621,-5.71376895904541,-1.0547809600830078,2.2847959995269775,-2.259770154953003,-4.669765472412109,-1.8519622087478638,-5.335813045501709
0.7459641000023112,-1.731483817100525,-6.871908187866211,-7.532630443572998,-2.1751134395599365,0.6711142659187317,-5.126331806182861,-8.33672046661377,-4.6770548820495605,-6.237196922302246
0.7489308000076562,-3.781399965286255,-8.660418510437012,-9.105032920837402,-3.2317094802856445,-0.9259517788887024,-7.8923540115356445,-11.781213760375977,-7.394930362701416,-6.983757972717285
0.7514772999566048,-5.610349178314209,-10.200274467468262,-10.39663314819336,-4.127447128295898,-2.346984386444092,-10.46180248260498,-14.842681884765625,-9.853473663330078,-7.545794486999512
0.7544752999674529,-7.1380934715271,-11.43587589263916,-11.429438591003418,-4.807133674621582,-3.4875733852386475,-12.7754545211792,-17.42538833618164,-11.951621055603027,-7.933401107788086
0.7574239999521524,-8.348402976989746,-12.355589866638184,-12.26030445098877,-5.263354778289795,-4.318575859069824,-14.808502197265625,-19.49608039855957,-13.6509370803833,-8.178350448608398
0.7605616999790072,-9.278352737426758,-12.980169296264648,-12.957741737365723,-5.531301498413086,-4.882558822631836,-16.563907623291016,-21.072011947631836,-14.967606544494629,-8.32248592376709
0.7634696000022814,-9.994338989257812,-13.347296714782715,-13.576070785522461,-5.6710381507873535,-5.270562648773193,-18.060041427612305,-22.198246002197266,-15.951738357543945,-8.398260116577148
0.7663950999267399,-10.553720474243164,-13.498003005981445,-14.139993667602539,-5.746305465698242,-5.581308841705322,-19.32147789001465,-22.92759895324707,-16.65630340576172,-8.428892135620117
0.7694058999186382,-10.980746269226074,-13.46634292602539,-14.637825965881348,-5.8037590980529785,-5.8876190185546875,-20.368244171142578,-23.304113388061523,-17.113895416259766,-8.420391082763672
0.7724633999168873,-11.247298240661621,-13.271121978759766,-15.022778511047363,-5.854982376098633,-6.208611488342285,-21.20583152770996,-23.350643157958984,-17.31950569152832,-8.359712600708008
0.7756231999956071,-11.279243469238281,-12.912635803222656,-15.222796440124512,-5.8716349601745605,-6.503719806671143,-21.8195743560791,-23.066783905029297,-17.232044219970703,-8.216214179992676
0.7784506999887526,-10.982627868652344,-12.37299633026123,-15.147992134094238,-5.787908554077148,-6.685812473297119,-22.168231964111328,-22.430469512939453,-16.790571212768555,-7.931212902069092
0.7814077999209985,-10.277695655822754,-11.623313903808594,-14.710284233093262,-5.519379615783691,-6.652402400970459,-22.19080352783203,-21.40852928161621,-15.939478874206543,-7.434359550476074
0.784503799979575,-9.140318870544434,-10.636798858642578,-13.842445373535156,-4.987071514129639,-6.322022914886475,-21.81757354736328,-19.97096824645996,-14.65666389465332,-6.658224105834961
0.7873702999204397,-7.620730876922607,-9.4028959274292,-12.516167640686035,-4.1407318115234375,-5.663065433502197,-20.989051818847656,-18.106882095336914,-12.971735000610352,-5.559123992919922
0.7903738999739289,-5.845456600189209,-7.94322395324707,-10.76220417022705,-2.979747772216797,-4.7088141441345215,-19.677610397338867,-15.84002685546875,-10.970720291137695,-4.149771690368652
0.7934469999745488,-3.9962856769561768,-6.3200249671936035,-8.679328918457031,-1.5615148544311523,-3.555459976196289,-17.909320831298828,-13.24284553527832,-8.788376808166504,-2.513607978820801
0.796353799989447,-2.2658090591430664,-4.632171630859375,-6.425116062164307,0.008278140798211098,-2.335904836654663,-15.770423889160156,-10.435310363769531,-6.584237098693848,-0.7980936169624329
0.7994356999406591,-0.8199360966682434,-2.999243974685669,-4.196542739868164,1.592470407485962,-1.1912963390350342,-13.401163101196289,-7.5753278732299805,-4.51487398147583,0.8043294548988342
0.8022272000089288,0.23699043691158295,-1.5406670570373535,-2.1981916427612305,3.04646372795105,-0.23958852887153625,-10.976751327514648,-4.840931415557861,-2.7103233337402344,2.0934550762176514
0.8050277999136597,0.8744235634803772,-0.3481506109237671,-0.5967394113540649,4.245707035064697,0.44574597477912903,-8.671255111694336,-2.4003567695617676,-1.2548741102218628,2.913072347640991
0.8080406999215484,1.1282968521118164,0.5318254232406616,0.5118448734283447,5.10176420211792,0.8423243761062622,-6.624362945556641,-0.3840773105621338,-0.18263377249240875,3.186858892440796
0.8108450999716297,1.0815027952194214,1.106949806213379,1.1269960403442383,5.573936462402344,0.9747909903526306,-4.907215118408203,1.1414506435394287,0.5235563516616821,2.941617250442505
0.8139629999641329,0.8342763781547546,1.4264920949935913,1.3372234106063843,5.666060924530029,0.8963721394538879,-3.513092517852783,2.1833343505859375,0.9200429916381836,2.2952518463134766
0.8167762999655679,0.4837467670440674,1.5648753643035889,1.2976906299591064,5.4194769859313965,0.6712040901184082,-2.3610928058624268,2.8216686248779297,1.091288447380066,1.4285355806350708
0.8198220999911427,0.11526762694120407,1.5990777015686035,1.1927974224090576,4.903889179229736,0.3632456064224243,-1.3179408311843872,3.195120096206665,1.1388286352157593,0.5425154566764832
0.82278549997136,-0.200308695435524,1.5906093120574951,1.1923670768737793,4.2046217918396,0.0250846017152071,-0.23220422863960266,3.473491668701172,1.1679190397262573,-0.1907186508178711
0.8258366999216378,-0.4071493148803711,1.5732502937316895,1.4137734174728394,3.4116859436035156,-0.303981751203537,1.0253291130065918,3.8235812187194824,1.2735393047332764,-0.6664087772369385
0.8288152000168338,-0.46669796109199524,1.5560249090194702,1.9038740396499634,2.610785961151123,-0.5996251702308655,2.5316176414489746,4.377443790435791,1.5249582529067993,-0.8594127893447876
0.8319652999052778,-0.3585881292819977,1.536120057106018,2.645984411239624,1.8792638778686523,-0.8464339375495911,4.299402713775635,5.212671756744385,1.959193468093872,-0.8126957416534424
0.8347667999332771,-0.08921254426240921,1.5099849700927734,3.5747780799865723,1.2767436504364014,-1.0381901264190674,6.276395320892334,6.340570449829102,2.5727412700653076,-0.6172794103622437
0.8377820999594405,0.3024994730949402,1.484334945678711,4.601137161254883,0.8426471948623657,-1.1745715141296387,8.361515045166016,7.708611488342285,3.321981191635132,-0.3730603754520416
0.8407079000025988,0.7514082193374634,1.4798078536987305,5.638982772827148,0.5934626460075378,-1.2575812339782715,10.430081367492676,9.216961860656738,4.133845329284668,-0.1572585552930832
0.8438625999260694,1.1796629428863525,1.5258556604385376,6.619013786315918,0.522983729839325,-1.2891461849212646,12.36032485961914,10.742524147033691,4.923347473144531,-0.009029761888086796
0.8467829999281093,1.5172783136367798,1.649113655090332,7.492661952972412,0.6054960489273071,-1.2673606872558594,14.052396774291992,12.1622953414917,5.611174583435059,0.07442478835582733
0.8497204999439418,1.7207202911376953,1.8591227531433105,8.225719451904297,0.7987760305404663,-1.1892610788345337,15.435529708862305,13.371200561523438,6.136252403259277,0.12144874781370163
0.8527064999798313,1.7833187580108643,2.1391425132751465,8.791171073913574,1.0508313179016113,-1.0534690618515015,16.468036651611328,14.293116569519043,6.464174747467041,0.1660325527191162
0.8556850999593735,1.7362337112426758,2.4461519718170166,9.166050910949707,1.3082172870635986,-0.8619880080223083,17.129898071289062,14.88276195526123,6.587993144989014,0.2286422997713089
0.8588547999970615,1.6301062107086182,2.7187511920928955,9.33255386352539,1.5225087404251099,-0.6288401484489441,17.413843154907227,15.119233131408691,6.519164562225342,0.3077085614204407
0.8617431999882683,1.5145469903945923,2.8923091888427734,9.283703804016113,1.65735924243927,-0.3802131116390228,17.319578170776367,14.997593879699707,6.276907444000244,0.38253408670425415
0.8646993999136612,1.420973777770996,2.917393445968628,9.027898788452148,1.6959351301193237,-0.15007491409778595,16.852964401245117,14.521842956542969,5.881778717041016,0.4266798198223114
0.8679414999205619,1.3473412990570068,2.770923376083374,8.588011741638184,1.6405024528503418,0.023233985528349876,16.027671813964844,13.69987964630127,5.348885536193848,0.4191540777683258
0.8702862999634817,1.2572999000549316,2.4615252017974854,7.993915557861328,1.5107508897781372,0.10498307645320892,14.868276596069336,12.541913986206055,4.6845502853393555,0.3573697805404663
0.8733296999707818,1.0958890914916992,2.024430274963379,7.272190570831299,1.3375643491744995,0.07334056496620178,13.412885665893555,11.066341400146484,3.890479564666748,0.25592851638793945
0.876382099930197,0.808279275894165,1.507088303565979,6.435795783996582,1.1529885530471802,-0.07587357610464096,11.709750175476074,9.301131248474121,2.967428207397461,0.13643184304237366
0.8792320999782532,0.3547784388065338,0.9506135582923889,5.47869348526001,0.9777241945266724,-0.33390429615974426,9.812233924865723,7.286897659301758,1.9164890050888062,0.013438652269542217
0.8819789999397472,-0.27180418372154236,0.378280907869339,4.382218360900879,0.815735936164856,-0.6806992888450623,7.772478103637695,5.078098297119141,0.7456916570663452,-0.12013934552669525
0.8849452999420464,-1.0455825328826904,-0.2128533571958542,3.1302945613861084,0.6522770524024963,-1.0924866199493408,5.636139869689941,2.7382235527038574,-0.5288739204406738,-0.29143401980400085
0.8879032999975607,-1.9078320264816284,-0.844784677028656,1.7271095514297485,0.46133655309677124,-1.5435041189193726,3.443545341491699,0.33668383955955505,-1.8773536682128906,-0.5418466925621033
0.8908824999816716,-2.7807388305664062,-1.5479671955108643,0.20587104558944702,0.21307708323001862,-2.010233163833618,1.2316842079162598,-2.0564284324645996,-3.255739212036133,-0.9176911115646362
0.8940406999317929,-3.5854973793029785,-2.347971200942993,-1.3739609718322754,-0.11559922993183136,-2.474050521850586,-0.9654406905174255,-4.378452777862549,-4.609772682189941,-1.4534584283828735
0.8968862999463454,-4.258982181549072,-3.2531304359436035,-2.9394452571868896,-0.5345154404640198,-2.9207210540771484,-3.1140103340148926,-6.577662467956543,-5.880989074707031,-2.1619222164154053
0.8998758000088856,-4.766322135925293,-4.247871398925781,-4.425596714019775,-1.0387297868728638,-3.3426101207733154,-5.182063579559326,-8.615324974060059,-7.0155134201049805,-3.0324296951293945
0.902890499914065,-5.106973648071289,-5.294347763061523,-5.795126914978027,-1.6111794710159302,-3.7385621070861816,-7.143697738647461,-10.464661598205566,-7.972515106201172,-4.034199237823486
0.9058829999994487,-5.304596900939941,-6.3351263999938965,-7.039592742919922,-2.2242271900177,-4.109667778015137,-8.977770805358887,-12.103300094604492,-8.726523399353027,-5.117865085601807
0.9089649999514222,-5.403375148773193,-7.304450511932373,-8.175780296325684,-2.846071243286133,-4.459164619445801,-10.668752670288086,-13.509969711303711,-9.270004272460938,-6.226401329040527
0.9118278999812901,-5.441547393798828,-8.134160995483398,-9.223794937133789,-3.43869948387146,-4.783225059509277,-12.203186988830566,-14.658784866333008,-9.605554580688477,-7.294701099395752
0.9148358999518678,-5.437466144561768,-8.759576797485352,-10.180305480957031,-3.9544003009796143,-5.0627760887146,-13.56064224243164,-15.51590347290039,-9.736063003540039,-8.245370864868164
0.9178125999169424,-5.3850908279418945,-9.127923011779785,-11.004582405090332,-4.337926864624023,-5.263721942901611,-14.708984375,-16.04458999633789,-9.661552429199219,-8.992607116699219
0.920848699985072,-5.252139568328857,-9.203736305236816,-11.620657920837402,-4.529526710510254,-5.337585926055908,-15.604023933410645,-16.213176727294922,-9.376121520996094,-9.449039459228516
0.9238137999782339,-5.003134727478027,-8.981372833251953,-11.940434455871582,-4.479986190795898,-5.238866806030273,-16.199054718017578,-16.009654998779297,-8.877760887145996,-9.545332908630371
0.9268627999117598,-4.616824626922607,-8.487709999084473,-11.889237403869629,-4.162954807281494,-4.9377546310424805,-16.45368766784668,-15.450201034545898,-8.177907943725586,-9.239171981811523
0.9298689999850467,-4.104963779449463,-7.786807060241699,-11.440414428710938,-3.592858076095581,-4.437164306640625,-16.35062026977539,-14.58680534362793,-7.312549591064453,-8.538116455078125
0.9328632999677211,-3.522979736328125,-6.974552154541016,-10.630828857421875,-2.83235502243042,-3.782749652862549,-15.90528678894043,-13.504435539245605,-6.347301006317139,-7.505755424499512
0.9358734999550506,-2.9562973976135254,-6.1592912673950195,-9.55415153503418,-1.982646107673645,-3.055011034011841,-15.16328239440918,-12.30577278137207,-5.3690505027771,-6.251186847686768
0.9387981999898329,-2.495389699935913,-5.439486026763916,-8.338310241699219,-1.165877342224121,-2.3514840602874756,-14.190563201904297,-11.089417457580566,-4.467398643493652,-4.911646842956543
0.9413179999683052,-2.2020363807678223,-4.875208377838135,-7.103889465332031,-0.4925612509250641,-1.7585963010787964,-13.049522399902344,-9.923486709594727,-3.710646390914917,-3.6194064617156982
0.9443825999042019,-2.086470603942871,-4.471254825592041,-5.930972576141357,-0.03507407009601593,-1.329380750656128,-11.78029727935791,-8.829240798950195,-3.12774658203125,-2.4732577800750732
0.9473225999390706,-2.0970535278320312,-4.172429084777832,-4.840837001800537,0.1914559006690979,-1.0669878721237183,-10.3870267868042,-7.772734642028809,-2.695406436920166,-1.5227864980697632
0.9503847999731079,-2.1350491046905518,-3.8780152797698975,-3.7941529750823975,0.23047733306884766,-0.9293293952941895,-8.837875366210938,-6.674691677093506,-2.3441944122314453,-0.7610213160514832
0.9533356999745592,-2.0859689712524414,-3.471381187438965,-2.7160351276397705,0.16784299910068512,-0.8451355695724487,-7.079875469207764,-5.433663368225098,-1.977147102355957,-0.14025980234146118
0.9562778999097645,-1.8636120557785034,-2.8589816093444824,-1.5298409461975098,0.1029486358165741,-0.7448992133140564,-5.067966938018799,-3.961768388748169,-1.5011087656021118,0.40790000557899475
0.9593422999605536,-1.4423000812530518,-2.004227638244629,-0.19486935436725616,0.11772824823856354,-0.5867896676063538,-2.794848680496216,-2.2185051441192627,-0.8567466735839844,0.944186270236969
0.9620065999915823,-0.8679438233375549,-0.9433883428573608,1.2751803398132324,0.25739121437072754,-0.3696522116661072,-0.3097202479839325,-0.23052091896533966,-0.034675270318984985,1.5068833827972412
0.9650500999996439,-0.24526053667068481,0.21897506713867188,2.8061161041259766,0.5221803784370422,-0.13018538057804108,2.2753326892852783,1.9035606384277344,0.9204604625701904,2.100933790206909
0.9682783999014646,0.2994069457054138,1.3377397060394287,4.283051490783691,0.877777099609375,0.07662283629179001,4.80379581451416,4.032955169677734,1.9256949424743652,2.7078335285186768
0.9710348999360576,0.6670086979866028,2.273733139038086,5.584228992462158,1.2772737741470337,0.20912867784500122,7.1103997230529785,5.996095657348633,2.8924505710601807,3.2971370220184326
0.973976599983871,0.82819664478302,2.9389491081237793,6.619913578033447,1.6858859062194824,0.2686138451099396,9.063204765319824,7.666131973266602,3.762453317642212,3.8477227687835693
0.9769675999414176,0.8404581546783447,3.3275554180145264,7.360994815826416,2.0949525833129883,0.30876848101615906,10.598299980163574,8.989044189453125,4.529760360717773,4.3551483154296875
0.9799306999193504,0.8368522524833679,3.521209716796875,7.8480224609375,2.5222175121307373,0.4276602864265442,11.734871864318848,10.001873016357422,5.248942852020264,4.830795764923096
0.9829566999105737,0.9815195202827454,3.6637115478515625,8.1790132522583,2.999173164367676,0.7348375916481018,12.564547538757324,10.818621635437012,6.013737678527832,5.294901371002197
0.9859980999026448,1.4103821516036987,3.911165952682495,8.47123908996582,3.546208620071411,1.308029294013977,13.21468734741211,11.590432167053223,6.920200824737549,5.750957012176514
0.988929699989967,2.183180093765259,4.379891872406006,8.823409080505371,4.154963493347168,2.156923532485962,13.803449630737305,12.452030181884766,8.023404121398926,6.1814866065979
0.9916181999724358,3.2512457370758057,5.0989203453063965,9.274191856384277,4.775623798370361,3.2019476890563965,14.393926620483398,13.468310356140137,9.302043914794922,6.53531551361084
0.9945136000169441,4.4625139236450195,5.991954803466797,9.779895782470703,5.321650981903076,4.281191349029541,14.967793464660645,14.600862503051758,10.643439292907715,6.735485076904297
0.9974444999825209,5.602466106414795,6.8960065841674805,10.22607421875,5.692935466766357,5.190439701080322,15.432433128356934,15.713211059570312,11.863356590270996,6.701557636260986
1.0003987000091001,6.45645809173584,7.609644889831543,10.463324546813965,5.807315826416016,5.736902236938477,15.654923439025879,16.606460571289062,12.749578475952148,6.377204418182373
1.0034681999823079,6.87286376953125,7.956368923187256,10.359700202941895,5.63119649887085,5.79708194732666,15.512665748596191,17.080480575561523,13.120782852172852,5.75565767288208
1.0063646999187768,6.808365821838379,7.8461833000183105,9.85595703125,5.1985859870910645,5.3568878173828125,14.947850227355957,16.999526977539062,12.882116317749023,4.89575719833374
1.0095376999815926,6.338795185089111,7.309124946594238,8.997271537780762,4.610674858093262,4.522353649139404,13.999380111694336,16.339195251464844,12.058899879455566,3.9173500537872314
1.012095799902454,5.631070613861084,6.491433620452881,7.932171821594238,4.0124053955078125,3.4919230937957764,12.802385330200195,15.198232650756836,10.794219017028809,2.9767143726348877
1.0149259999161586,4.886448383331299,5.610872268676758,6.870368480682373,3.551330327987671,2.5024232864379883,11.55063533782959,13.768359184265137,9.311341285705566,2.2252464294433594
1.0179263999452814,4.27551794052124,4.891170024871826,6.017507553100586,3.335487127304077,1.7618674039840698,10.43740177154541,12.27584171295166,7.8527045249938965,1.7693742513656616
1.020891899941489,3.8865158557891846,4.491687774658203,5.502185821533203,3.398155450820923,1.3933589458465576,9.590184211730957,10.912781715393066,6.614208221435547,1.631122350692749
1.0239075999706984,3.700314521789551,4.456327438354492,5.328740119934082,3.685462474822998,1.4026906490325928,9.02854061126709,9.779973030090332,5.692849636077881,1.742584466934204
1.0269578999141231,3.602792501449585,4.6994194984436035,5.363992214202881,4.067065715789795,1.6812081336975098,8.649882316589355,8.860015869140625,5.065064907073975,1.9551652669906616
1.02993889991194,3.429910898208618,5.032761573791504,5.37247896194458,4.372666358947754,2.044956922531128,8.25963020324707,8.033149719238281,4.603496074676514,2.07841420173645
1.032887400011532,3.0192601680755615,5.222590923309326,5.089522838592529,4.439873218536377,2.289013147354126,7.629532814025879,7.121939182281494,4.120406150817871,1.9372203350067139
1.0358899999409914,2.272670269012451,5.063446044921875,4.308073997497559,4.16254186630249,2.253110647201538,6.569804668426514,5.958609580993652,3.431562900543213,1.427514672279358
1.0388771999860182,1.1839780807495117,4.43731164932251,2.943201780319214,3.5189459323883057,1.8648862838745117,4.984220504760742,4.440912246704102,2.411675453186035,0.546762228012085
1.0414622999960557,-0.15706703066825867,3.347449779510498,1.0657122135162354,2.5789525508880615,1.1564292907714844,2.900667190551758,2.5674874782562256,1.0304181575775146,-0.594237208366394
1.0443106999155134,-1.5879578590393066,1.913962721824646,-1.119773507118225,1.4820274114608765,0.2523389458656311,0.46051114797592163,0.43823543190956116,-0.6398681402206421,-1.8040434122085571
1.0472417999990284,-2.924299955368042,0.33429035544395447,-3.335021734237671,0.3958185613155365,-0.6734880805015564,-2.123126745223999,-1.7778358459472656,-2.450359582901001,-2.86322021484375
1.0502334999619052,-4.003018856048584,-1.1740102767944336,-5.3079023361206055,-0.5289637446403503,-1.4457788467407227,-4.62380313873291,-3.892847776412964,-4.217729091644287,-3.5867760181427
1.0532263999339193,-4.721251964569092,-2.4309353828430176,-6.843581676483154,-1.1969377994537354,-1.9349327087402344,-6.8545756340026855,-5.749133586883545,-5.772016525268555,-3.8767175674438477
1.0562427999684587,-5.055800437927246,-3.3389768600463867,-7.871339321136475,-1.5913909673690796,-2.087722063064575,-8.708394050598145,-7.257894039154053,-6.999429225921631,-3.7547178268432617
1.0593892999459058,-5.056062698364258,-3.895679473876953,-8.441637992858887,-1.768502950668335,-1.9318594932556152,-10.162140846252441,-8.40748405456543,-7.860965728759766,-3.3479371070861816
1.0620035999454558,-4.8200249671936035,-4.1802144050598145,-8.691329956054688,-1.8351128101348877,-1.5578081607818604,-11.260075569152832,-9.249897003173828,-8.389577865600586,-2.852261781692505
1.0650131999282166,-4.465003490447998,-4.318417072296143,-8.787068367004395,-1.9143651723861694,-1.0885636806488037,-12.079628944396973,-9.869908332824707,-8.670774459838867,-2.472769260406494
1.0680584999499843,-4.098462104797363,-4.440445899963379,-8.870100021362305,-2.111405849456787,-0.6464698314666748,-12.695246696472168,-10.350152015686035,-8.811413764953613,-2.369619607925415
1.0705936999293044,-3.797600746154785,-4.642174243927002,-9.019499778747559,-2.486241579055786,-0.32322463393211365,-13.151324272155762,-10.741600036621094,-8.906729698181152,-2.6182174682617188
1.073617999907583,-3.6039083003997803,-4.964115142822266,-9.243501663208008,-3.044699192047119,-0.16848620772361755,-13.453668594360352,-11.053499221801758,-9.017749786376953,-3.199350357055664
1.0772575999144465,-3.5318078994750977,-5.392667293548584,-9.49984359741211,-3.745596170425415,-0.19361279904842377,-13.579800605773926,-11.260200500488281,-9.16443157196045,-4.020530700683594
1.0796547000063583,-3.5799341201782227,-5.874096393585205,-9.727402687072754,-4.518032073974609,-0.3836272060871124,-13.496750831604004,-11.318666458129883,-9.327805519104004,-4.953615665435791
1.0825765999034047,-3.7417428493499756,-6.339624404907227,-9.876053810119629,-5.283637046813965,-0.7133906483650208,-13.181950569152832,-11.19084358215332,-9.462506294250488,-5.873619079589844
1.0857312999432907,-4.019608974456787,-6.734315395355225,-9.930134773254395,-5.981868267059326,-1.1657520532608032,-12.641021728515625,-10.865498542785645,-9.518952369689941,-6.697624206542969
1.0886426999932155,-4.42011833190918,-7.032567501068115,-9.906939506530762,-6.58060359954834,-1.7344943284988403,-11.910930633544922,-10.366037368774414,-9.456707000732422,-7.391781806945801
1.091542899957858,-4.954274654388428,-7.244231700897217,-9.841024398803711,-7.079728603363037,-2.4242217540740967,-11.051451683044434,-9.747422218322754,-9.258617401123047,-7.966454029083252
1.094737899955362,-5.6211771965026855,-7.406011581420898,-9.765786170959473,-7.504889965057373,-3.237823009490967,-10.131288528442383,-9.081467628479004,-8.931051254272461,-8.457613945007324
1.0975771999219432,-6.399694442749023,-7.563994884490967,-9.689706802368164,-7.889998435974121,-4.162317276000977,-9.207486152648926,-8.435453414916992,-8.49910831451416,-8.894999504089355
1.1005710000172257,-7.239394187927246,-7.749916076660156,-9.583577156066895,-8.258883476257324,-5.158935546875,-8.306533813476562,-7.847908020019531,-7.992217540740967,-9.28285026550293
1.1035092999227345,-8.059507369995117,-7.9620842933654785,-9.380372047424316,-8.607609748840332,-6.156843185424805,-7.4146528244018555,-7.311720371246338,-7.431103229522705,-9.584976196289062
1.1065314000006765,-8.752342224121094,-8.153162956237793,-8.9827241897583,-8.89432144165039,-7.05730676651001,-6.475715637207031,-6.765749931335449,-6.813075065612793,-9.723437309265137
1.109653199906461,-9.194938659667969,-8.23210620880127,-8.279313087463379,-9.038634300231934,-7.746092796325684,-5.39919376373291,-6.101964950561523,-6.107143402099609,-9.588129997253418
1.1122728999471292,-9.2800874710083,-8.087672233581543,-7.177847862243652,-8.943696975708008,-8.122056007385254,-4.088250637054443,-5.1936798095703125,-5.2679314613342285,-9.070119857788086
1.1153185999719426,-8.933449745178223,-7.614443302154541,-5.626405239105225,-8.518866539001465,-8.116275787353516,-2.4634342193603516,-3.927487373352051,-4.249666213989258,-8.088480949401855
1.118237999966368,-8.13862133026123,-6.747005462646484,-3.6352157592773438,-7.709676742553711,-7.713935852050781,-0.4949341118335724,-2.2442069053649902,-3.034073829650879,-6.616210460662842
1.1207553999265656,-6.948888301849365,-5.489132881164551,-1.2951489686965942,-6.524831771850586,-6.96373987197876,1.7747600078582764,-0.17014725506305695,-1.6514513492584229,-4.709035396575928
1.1237678999314085,-5.484041690826416,-3.924931287765503,1.2278752326965332,-5.043156623840332,-5.97174072265625,4.2240519523620605,2.170483112335205,-0.190141499042511,-2.503039598464966
1.1268069999059662,-3.912597179412842,-2.210692882537842,3.7124338150024414,-3.4057130813598633,-4.881595611572266,6.665297508239746,4.567542552947998,1.2106059789657593,-0.2001855969429016
1.1297472999431193,-2.420542001724243,-0.5465392470359802,5.9175567626953125,-1.787457823753357,-3.8441247940063477,8.876795768737793,6.762776851654053,2.386542558670044,1.9664891958236694
1.1327106999233365,-1.1740899085998535,0.8655140995979309,7.631460189819336,-0.35864734649658203,-2.9850754737854004,10.64758586883545,8.501789093017578,3.18721079826355,3.783381700515747
1.1357851999346167,-0.2857874035835266,1.8679521083831787,8.715914726257324,0.7534804344177246,-2.3780324459075928,11.823840141296387,9.59585952758789,3.518280506134033,5.097314357757568
1.1387227999512106,0.20509035885334015,2.3826260566711426,9.13624095916748,1.4928594827651978,-2.0309629440307617,12.344929695129395,9.964761734008789,3.3706588745117188,5.849230766296387
1.1412166999652982,0.33499738574028015,2.4257452487945557,8.963971138000488,1.8782612085342407,-1.8933688402175903,12.252832412719727,9.655981063842773,2.828166961669922,6.076300621032715
1.144288899959065,0.1977466493844986,2.098612070083618,8.355324745178223,1.9891331195831299,-1.875483751296997,11.678269386291504,8.830085754394531,2.049476385116577,5.890624046325684
1.147321299999021,-0.08731028437614441,1.5558710098266602,7.503289222717285,1.9332669973373413,-1.8803741931915283,10.801310539245605,7.7176289558410645,1.2271194458007812,5.437265872955322
1.1502150999149308,-0.40628597140312195,0.9638741612434387,6.589713096618652,1.812846302986145,-1.8309913873672485,9.804160118103027,6.560512065887451,0.5398168563842773,4.854002952575684
1.1531958999112248,-0.6818277835845947,0.4575766921043396,5.742193698883057,1.6948796510696411,-1.6938908100128174,8.82468032836914,5.553043365478516,0.10485174506902695,4.234741687774658
1.156206400017254,-0.8855025768280029,0.10975167900323868,5.0145392417907715,1.5985264778137207,-1.4831571578979492,7.9281697273254395,4.7982282638549805,-0.04846970736980438,3.6214280128479004
1.159397599985823,-1.0291972160339355,-0.07726950943470001,4.393210411071777,1.502354383468628,-1.249826192855835,7.105522632598877,4.295859336853027,0.02349654957652092,3.0148017406463623
1.1618104999652132,-1.153228759765625,-0.16448216140270233,3.8198485374450684,1.3600387573242188,-1.0644844770431519,6.292147159576416,3.955779552459717,0.20065085589885712,2.3948476314544678
1.1647682999027893,-1.3006019592285156,-0.24940381944179535,3.2245864868164062,1.1244099140167236,-0.9918467402458191,5.40317964553833,3.6345410346984863,0.34058091044425964,1.7431697845458984
1.1679561999626458,-1.4955036640167236,-0.43244442343711853,2.5551488399505615,0.7692658305168152,-1.0702193975448608,4.37213659286499,3.184222459793091,0.3241488039493561,1.0635740756988525
1.170401499955915,-1.7309685945510864,-0.7855004668235779,1.790073275566101,0.2992493808269501,-1.3002551794052124,3.1766486167907715,2.4940366744995117,0.0894295871257782,0.37753668427467346
1.173365299939178,-1.9720125198364258,-1.3333979845046997,0.9386817216873169,-0.2517002522945404,-1.6462280750274658,1.8460314273834229,1.516201376914978,-0.3580895662307739,-0.2835475206375122
1.1764946999028325,-2.1656081676483154,-2.0457699298858643,0.029971236363053322,-0.8285945057868958,-2.0449378490448,0.4518662095069885,0.27359363436698914,-0.951414942741394,-0.894790530204773
1.1793429999379441,-2.256230592727661,-2.8445422649383545,-0.8995615839958191,-1.3678224086761475,-2.4184353351593018,-0.9151172637939453,-1.1502658128738403,-1.5858042240142822,-1.4415702819824219
1.1820181999355555,-2.2024784088134766,-3.6215453147888184,-1.81502103805542,-1.8093098402023315,-2.6905689239501953,-2.1724226474761963,-2.635854721069336,-2.1523256301879883,-1.9180786609649658
1.1851269999751821,-1.9884710311889648,-4.261428356170654,-2.6827731132507324,-2.105226993560791,-2.8009181022644043,-3.2635552883148193,-4.052680492401123,-2.565223217010498,-2.3167951107025146
1.1879733999958262,-1.6241817474365234,-4.663360118865967,-3.467578411102295,-2.224813938140869,-2.7126340866088867,-4.1662678718566895,-5.282771110534668,-2.779900074005127,-2.617201089859009
1.1909378999844193,-1.138213038444519,-4.757978916168213,-4.127527236938477,-2.155411720275879,-2.41426944732666,-4.887193202972412,-6.234907627105713,-2.7937541007995605,-2.780860662460327
1.194083399954252,-0.5829199552536011,-4.526093482971191,-4.62105131149292,-1.9104143381118774,-1.9311498403549194,-5.4543070793151855,-6.859740257263184,-2.6483347415924072,-2.7654733657836914
1.1969607999781147,-0.02178862690925598,-4.000065803527832,-4.9128804206848145,-1.5271329879760742,-1.318301796913147,-5.903137683868408,-7.151677131652832,-2.4162447452545166,-2.539595603942871
1.1999200999271125,0.47092506289482117,-3.2656350135803223,-4.9937424659729,-1.0703399181365967,-0.658607006072998,-6.274435520172119,-7.152256965637207,-2.190406560897827,-2.11315655708313
1.202919999952428,0.8134576082229614,-2.4504234790802,-4.894212245941162,-0.629108726978302,-0.05468205735087395,-6.6146321296691895,-6.946789741516113,-2.076024055480957,-1.552746057510376
1.2060317000141367,0.9243465662002563,-1.704585075378418,-4.687100410461426,-0.30250343680381775,0.38731589913368225,-6.979022979736328,-6.655433654785156,-2.177724838256836,-0.9765022993087769
1.2092993999831378,0.7347353100776672,-1.1746244430541992,-4.479701995849609,-0.18336749076843262,0.57600998878479,-7.433960437774658,-6.414760589599609,-2.586376190185547,-0.5347903966903687
1.2134385999524966,0.2077227532863617,-0.9733580350875854,-4.3939385414123535,-0.33593106269836426,0.45710423588752747,-8.049625396728516,-6.351805210113525,-3.3588292598724365,-0.3744997978210449
1.2159058999968693,-0.6438623666763306,-1.1524544954299927,-4.5347418785095215,-0.7765058279037476,0.028370020911097527,-8.884756088256836,-6.555844783782959,-4.499959468841553,-0.5921729803085327
1.2190092999953777,-1.742508053779602,-1.683989405632019,-4.95679235458374,-1.4594409465789795,-0.6491262316703796,-9.962510108947754,-7.051101207733154,-5.944822311401367,-1.1977360248565674
1.2218901999294758,-2.9574553966522217,-2.4674065113067627,-5.656407833099365,-2.28760027885437,-1.465610146522522,-11.259378433227539,-7.791905879974365,-7.562985420227051,-2.1114048957824707
1.2248732999432832,-4.1186842918396,-3.346736192703247,-6.5627121925354,-3.1284608840942383,-2.278881549835205,-12.695796966552734,-8.668680191040039,-9.171247482299805,-3.1714868545532227
1.2278644999023527,-5.060997486114502,-4.1517157554626465,-7.5593719482421875,-3.8471689224243164,-2.9512875080108643,-14.149469375610352,-9.538150787353516,-10.571152687072754,-4.1778564453125
1.2303895999211818,-5.6623382568359375,-4.739225387573242,-8.514841079711914,-4.34119176864624,-3.3813836574554443,-15.478741645812988,-10.260429382324219,-11.588949203491211,-4.945030689239502
1.233543699956499,-5.879079341888428,-5.030930995941162,-9.315610885620117,-4.566982746124268,-3.5307650566101074,-16.55615234375,-10.73803997039795,-12.116501808166504,-5.354898929595947
1.2363959999056533,-5.754924774169922,-5.027626037597656,-9.888760566711426,-4.548969268798828,-3.4307444095611572,-17.292634963989258,-10.93578052520752,-12.131773948669434,-5.382895469665527
1.2393645999254659,-5.404347896575928,-4.802161693572998,-10.215177536010742,-4.369248867034912,-3.1709327697753906,-17.654020309448242,-10.882383346557617,-11.698246955871582,-5.10413122177124
1.242659499985166,-4.972422122955322,-4.4662933349609375,-10.318493843078613,-4.137733459472656,-2.8686676025390625,-17.65281105041504,-10.645085334777832,-10.938323974609375,-4.6633758544921875
1.2453610999509692,-4.585281848907471,-4.127274990081787,-10.243965148925781,-3.9536349773406982,-2.6318249702453613,-17.326942443847656,-10.29238510131836,-9.991979598999023,-4.225925445556641
1.2483986999141052,-4.305568695068359,-3.8455865383148193,-10.027190208435059,-3.869922637939453,-2.522911548614502,-16.71074676513672,-9.856756210327148,-8.974055290222168,-3.9197452068328857
1.2508684999775141,-4.112276554107666,-3.6095221042633057,-9.670219421386719,-3.8718881607055664,-2.5396575927734375,-15.811104774475098,-9.3118896484375,-7.943958759307861,-3.790942430496216
1.2538704999024048,-3.908172369003296,-3.335298776626587,-9.130593299865723,-3.875974416732788,-2.612340211868286,-14.59698486328125,-8.5718412399292,-6.894761085510254,-3.7856006622314453
1.2572891999734566,-3.5566468238830566,-2.8923897743225098,-8.331902503967285,-3.7547895908355713,-2.6274406909942627,-13.0093994140625,-7.516574382781982,-5.767441272735596,-3.766768455505371
1.2599265999160707,-2.92767333984375,-2.1419639587402344,-7.183813571929932,-3.37172794342041,-2.458184242248535,-10.982943534851074,-6.028886318206787,-4.478671073913574,-3.553910493850708
1.2628325999248773,-1.9469680786132812,-0.9837744832038879,-5.6208906173706055,-2.6265082359313965,-2.006173849105835,-8.479662895202637,-4.0390543937683105,-2.9593255519866943,-2.986384630203247
1.2658447999274358,-0.6212035417556763,0.6129338145256042,-3.6310057640075684,-1.4860514402389526,-1.2283231019973755,-5.5132246017456055,-1.5542441606521606,-1.1817116737365723,-1.974414587020874
1.2688887999393046,0.9591150283813477,2.595019578933716,-1.2712258100509644,0.00046340536209754646,-0.15105395019054413,-2.1591577529907227,1.3327690362930298,0.8238325119018555,-0.5288373231887817
1.2719629999483004,2.6444897651672363,4.833426475524902,1.328460931777954,1.7069432735443115,1.1358473300933838,1.4466638565063477,4.454216480255127,2.9704666137695312,1.2319947481155396
1.275012300000526,4.262044906616211,7.147222518920898,3.992525815963745,3.4577510356903076,2.5007033348083496,5.129217624664307,7.596682548522949,5.1287522315979,3.118809461593628
1.2779959999024868,5.648454189300537,9.333146095275879,6.527327060699463,5.059230327606201,3.793048858642578,8.697747230529785,10.53414535522461,7.1469292640686035,4.913543224334717
1.2806591999251395,6.688469886779785,11.202670097351074,8.764070510864258,6.341380596160889,4.87995719909668,11.976265907287598,13.067185401916504,8.881415367126465,6.427819728851318
1.283866300014779,7.325877666473389,12.607654571533203,10.58890151977539,7.1858978271484375,5.664498805999756,14.824324607849121,15.048884391784668,10.218698501586914,7.542588710784912
1.2866502999095246,7.565059185028076,13.45727825164795,11.956841468811035,7.541535377502441,6.098427772521973,17.148021697998047,16.40052032470703,11.093891143798828,8.224381446838379
1.2896121999947354,7.461532115936279,13.726146697998047,12.886820793151855,7.425878047943115,6.183019638061523,18.902301788330078,17.11501693725586,11.499073028564453,8.516297340393066
1.2926495999563485,7.1045379638671875,13.450501441955566,13.441693305969238,6.914596080780029,5.9604291915893555,20.084047317504883,17.249309539794922,11.483391761779785,8.509114265441895
1.2955961999250576,6.601828098297119,12.719829559326172,13.698381423950195,6.122256755828857,5.5022969245910645,20.7232666015625,16.909711837768555,11.145500183105469,8.304351806640625
1.298601199989207,6.061931610107422,11.6578950881958,13.719171524047852,5.180612087249756,4.89553689956665,20.86886215209961,16.228450775146484,10.612407684326172,7.98405647277832
1.301096300012432,5.582098960876465,10.405291557312012,13.537740707397461,4.220110893249512,4.232137680053711,20.581220626831055,15.342744827270508,10.018738746643066,7.595885753631592
1.304088499979116,5.2312912940979,9.094833374023438,13.153526306152344,3.3497700691223145,3.5945918560028076,19.921138763427734,14.369119644165039,9.478021621704102,7.150842666625977
1.3070825999602675,5.046672821044922,7.833859920501709,12.54596996307373,2.6496212482452393,3.0536856651306152,18.943395614624023,13.385520935058594,9.061908721923828,6.643393039703369
1.310230499948375,5.028167724609375,6.6917033195495605,11.695260047912598,2.163161277770996,2.6622939109802246,17.69512939453125,12.423007011413574,8.788393020629883,6.070217609405518
1.347012999933213,5.141602039337158,5.695065975189209,10.602804183959961,1.8979437351226807,2.4517691135406494,16.215993881225586,11.4675931930542,8.621009826660156,5.4484100341796875
1.3557798999827355,5.328947067260742,4.8337082862854,9.302777290344238,1.8282722234725952,2.4322237968444824,14.539155960083008,10.471938133239746,8.481168746948242,4.817739963531494
1.359119499917142,5.521936893463135,4.073006629943848,7.862390518188477,1.903602123260498,2.5936551094055176,12.695197105407715,9.376502990722656,8.269399642944336,4.232422828674316
1.3621318999212235,5.657527446746826,3.3689024448394775,6.364842414855957,2.0564944744110107,2.9072225093841553,10.713088035583496,8.128900527954102,7.8911662101745605,3.736860513687134
1.365555299911648,5.686584949493408,2.684664487838745,4.892745018005371,2.21494722366333,3.326930522918701,8.623215675354004,6.702193737030029,7.276057720184326,3.348013162612915
1.368745999992825,5.582779884338379,2.000883102416992,3.5076119899749756,2.3151841163635254,3.7975966930389404,6.45824670791626,5.10577917098999,6.395928859710693,3.0412425994873047
1.3709571999497712,5.341681957244873,1.3207963705062866,2.2393205165863037,2.3121416568756104,4.258753299713135,4.25348424911499,3.3862032890319824,5.2683424949646,2.7500081062316895
1.3739521999377757,4.978227138519287,0.6705310344696045,1.091222882270813,2.1903433799743652,4.655024528503418,2.0499744415283203,1.6226041316986084,3.9537785053253174,2.386833906173706
1.377634899923578,4.523647785186768,0.09359806776046753,0.049393512308597565,1.9683966636657715,4.9447550773620605,-0.10522805154323578,-0.08558588474988937,2.5444326400756836,1.8742436170578003
1.388677699957043,4.019543170928955,-0.3576781749725342,-0.8992174863815308,1.696167230606079,5.106570720672607,-2.1562960147857666,-1.6326802968978882,1.1463638544082642,1.1727312803268433
1.3914093999192119,3.514064311981201,-0.6317081451416016,-1.7532634735107422,1.4455901384353638,5.142107963562012,-4.039990425109863,-2.921844244003296,-0.13700143992900848,0.3031868040561676
1.3944590999744833,3.053140163421631,-0.6898044943809509,-2.493499994277954,1.2924861907958984,5.070913314819336,-5.690177917480469,-3.880345106124878,-1.2255349159240723,-0.6518594026565552
1.3975875999312848,2.6742656230926514,-0.5143741369247437,-3.085973024368286,1.2979282140731812,4.923333168029785,-7.042393684387207,-4.4690260887146,-2.0743589401245117,-1.565961480140686
1.4004116000141948,2.3961329460144043,-0.117195725440979,-3.4965381622314453,1.4893865585327148,4.72835111618042,-8.047093391418457,-4.691742897033691,-2.6836109161376953,-2.3030858039855957
1.403365399921313,2.2122061252593994,0.4574519693851471,-3.705758571624756,1.8486210107803345,4.501776218414307,-8.678779602050781,-4.5961079597473145,-3.0952112674713135,-2.7553532123565674
1.4063716999953613,2.0896620750427246,1.1355011463165283,-3.719299793243408,2.312779426574707,4.2413153648376465,-8.943601608276367,-4.266330718994141,-3.3817152976989746,-2.8736507892608643
1.4094658999238163,1.979883074760437,1.824313998222351,-3.569923162460327,2.7883925437927246,3.9311184883117676,-8.879721641540527,-3.8065268993377686,-3.6241443157196045,-2.677973508834839
1.412096899934113,1.8203635215759277,2.4212024211883545,-3.318763256072998,3.1663856506347656,3.541901111602783,-8.556949615478516,-3.325530529022217,-3.8954854011535645,-2.2578296661376953
1.414951300015673,1.5578961372375488,2.832219362258911,-3.0420889854431152,3.347959041595459,3.046967029571533,-8.06473159790039,-2.9161229133605957,-4.239872932434082,-1.7460623979568481
1.4179957999149337,1.1568269729614258,2.983276128768921,-2.8203842639923096,3.2620086669921875,2.430154323577881,-7.499381065368652,-2.64099383354187,-4.665517807006836,-1.2908509969711304
1.4207459000172094,0.6038006544113159,2.826160430908203,-2.7316203117370605,2.8728184700012207,1.6884489059448242,-6.954511642456055,-2.5330586433410645,-5.1523871421813965,-1.0275938510894775
1.4237272000173107,-0.09229741245508194,2.342959403991699,-2.8355484008789062,2.1817803382873535,0.8323034644126892,-6.5060133934021,-2.5974440574645996,-5.663455009460449,-1.0531851053237915
1.426994699984789,-0.9098538160324097,1.541062593460083,-3.1712803840637207,1.215704321861267,-0.12076818943023682,-6.208436012268066,-2.826530933380127,-6.166815280914307,-1.4181033372879028
1.4297296999720857,-1.8127940893173218,0.45575815439224243,-3.741654872894287,0.024303557351231575,-1.1451374292373657,-6.083756923675537,-3.2032859325408936,-6.638923168182373,-2.115065574645996
1.4327366999350488,-2.7629637718200684,-0.8562641143798828,-4.509866714477539,-1.3333548307418823,-2.213808059692383,-6.121724605560303,-3.708420753479004,-7.072020053863525,-3.089618444442749
1.4357464999193326,-3.7124195098876953,-2.3154053688049316,-5.4000773429870605,-2.7891197204589844,-3.2908501625061035,-6.279694080352783,-4.315422534942627,-7.460627555847168,-4.24373722076416
1.4387455999385566,-4.60012149810791,-3.8185126781463623,-6.2997870445251465,-4.264854907989502,-4.327192306518555,-6.486013889312744,-4.978512287139893,-7.78359317779541,-5.449823379516602
1.4412149999989197,-5.358578205108643,-5.248907089233398,-7.081800937652588,-5.676614761352539,-5.263914108276367,-6.654403209686279,-5.629736423492432,-7.997293472290039,-6.568404197692871
1.4443631999893114,-5.921590805053711,-6.488646507263184,-7.631833076477051,-6.940296173095703,-6.038217544555664,-6.70302152633667,-6.182260036468506,-8.035516738891602,-7.473552703857422
1.4472509999759495,-6.238089561462402,-7.433998107910156,-7.870275974273682,-7.979855537414551,-6.594540596008301,-6.568676471710205,-6.540585994720459,-7.823058605194092,-8.065802574157715
1.4502021999796852,-6.289759635925293,-8.017000198364258,-7.777299404144287,-8.74111270904541,-6.901785373687744,-6.226781368255615,-6.625583171844482,-7.300826072692871,-8.296723365783691
1.4531764999264851,-6.102199554443359,-8.219247817993164,-7.396737098693848,-9.202831268310547,-6.965124607086182,-5.697264671325684,-6.397215366363525,-6.450246810913086,-8.174817085266113
1.4561592999380082,-5.744472980499268,-8.07712459564209,-6.8242363929748535,-9.380431175231934,-6.828831195831299,-5.040500640869141,-5.869520664215088,-5.308382987976074,-7.762081623077393
1.4593866999493912,-5.31046199798584,-7.670790195465088,-6.179569721221924,-9.32204818725586,-6.565705299377441,-4.338895797729492,-5.1092047691345215,-3.9630682468414307,-7.161712169647217
1.461968099931255,-4.894463062286377,-7.103527545928955,-5.572481632232666,-9.093735694885254,-6.258864402770996,-3.674241304397583,-4.219143867492676,-2.534644842147827,-6.4886250495910645
1.4649533999618143,-4.559510231018066,-6.472431182861328,-5.070089817047119,-8.761744499206543,-5.975712299346924,-3.098461866378784,-3.3070132732391357,-1.1431535482406616,-5.843891143798828
1.4679561000084504,-4.319904804229736,-5.84478235244751,-4.678800582885742,-8.37633228302002,-5.751529216766357,-2.6153805255889893,-2.4540956020355225,0.1195429340004921,-5.289674282073975
1.4711123999441043,-4.137680530548096,-5.245514869689941,-4.34763240814209,-7.963771343231201,-5.581559181213379,-2.1791467666625977,-1.695741891860962,1.2065818309783936,-4.841706275939941
1.474121999926865,-3.9387545585632324,-4.660772800445557,-3.9883711338043213,-7.5278825759887695,-5.428712368011475,-1.7080127000808716,-1.0175535678863525,2.1150660514831543,-4.4700517654418945
1.4772326999809593,-3.6421303749084473,-4.055295467376709,-3.5068519115448,-7.057706356048584,-5.24023962020874,-1.1109989881515503,-0.3727344274520874,2.870382308959961,-4.112267971038818
1.480147699941881,-3.1880905628204346,-3.397160291671753,-2.8377883434295654,-6.542766094207764,-4.969314098358154,-0.3212118148803711,0.2909386157989502,3.504451274871826,-3.7019238471984863
1.4831138999434188,-2.559480905532837,-2.6782357692718506,-1.966955542564392,-5.982362747192383,-4.590466022491455,0.6788733005523682,1.0033313035964966,4.036737442016602,-3.1875948905944824
1.4861064999131486,-1.7881895303726196,-1.9280236959457397,-0.9418500065803528,-5.393164157867432,-4.108847618103027,1.8408905267715454,1.7514170408248901,4.464306354522705,-2.5546679496765137
1.4890524999937043,-0.9529662728309631,-1.2114795446395874,0.13684989511966705,-4.807489395141602,-3.5626983642578125,3.0568642616271973,2.4770898818969727,4.762716293334961,-1.834268569946289
1.4916322999633849,-0.1495463103055954,-0.6086165904998779,1.1432636976242065,-4.263489246368408,-3.0057570934295654,4.183154106140137,3.095111608505249,4.9047441482543945,-1.0935213565826416
1.4946208999026567,0.5271245241165161,-0.19238437712192535,1.9559595584869385,-3.795259952545166,-2.4974825382232666,5.074307918548584,3.5184638500213623,4.873037815093994,-0.4209136664867401
1.4976087999530137,1.0110725164413452,2.825738920364529e-05,2.49662709236145,-3.418154001235962,-2.081768751144409,5.6252665519714355,3.6923511028289795,4.677575588226318,0.10309953987598419
1.5010125999106094,1.28000807762146,-0.017695501446723938,2.749488115310669,-3.121936798095703,-1.7757552862167358,5.797854900360107,3.6139140129089355,4.360858917236328,0.4326920807361603
1.5039432999910787,1.358107089996338,-0.17856530845165253,2.769883155822754,-2.8696811199188232,-1.5637171268463135,5.635177135467529,3.3393068313598633,3.9928126335144043,0.5766308307647705
1.5069430000148714,1.3145641088485718,-0.37476053833961487,2.670274019241333,-2.602919816970825,-1.3949384689331055,5.250492572784424,2.972900629043579,3.6608686447143555,0.6014679670333862
1.5103434999473393,1.2447266578674316,-0.4831105172634125,2.5912790298461914,-2.255646228790283,-1.196550726890564,4.799004554748535,2.640953540802002,3.450936794281006,0.617821991443634
1.513031299924478,1.248660683631897,-0.39659082889556885,2.6612308025360107,-1.770671010017395,-0.8895356059074402,4.434170246124268,2.4593076705932617,3.431147336959839,0.7502034902572632
1.5159094999544322,1.407731533050537,-0.05011747032403946,2.961369276046753,-1.1153862476348877,-0.409009724855423,4.268885612487793,2.5058674812316895,3.6378660202026367,1.0999726057052612
1.5188965999986976,1.762410283088684,0.5618501305580139,3.5001540184020996,-0.29401499032974243,0.2754341661930084,4.345707893371582,2.8021793365478516,4.068328380584717,1.7114747762680054
1.5214301999658346,2.2964186668395996,1.3825932741165161,4.209578990936279,0.6485521793365479,1.1443661451339722,4.628346920013428,3.308645009994507,4.675907135009766,2.551926612854004
1.5243679999839514,2.9434595108032227,2.3089118003845215,4.96507453918457,1.6348870992660522,2.1305692195892334,5.018805027008057,3.938784122467041,5.381852149963379,3.5156962871551514
1.5274148000171408,3.5982744693756104,3.214951992034912,5.620795249938965,2.570141077041626,3.128985643386841,5.389896392822266,4.579329967498779,6.086501598358154,4.452426433563232
1.5303614999866113,4.142735958099365,3.981152057647705,6.0492048263549805,3.360776424407959,4.0185346603393555,5.623513698577881,5.113997459411621,6.686854362487793,5.204161643981934
1.5334467999637127,4.47308349609375,4.518178939819336,6.172853469848633,3.93221116065979,4.686886310577393,5.641420364379883,5.442110061645508,7.091310977935791,5.646742820739746
1.5364224999211729,4.526952743530273,4.783297538757324,5.978539943695068,4.242189884185791,5.056872844696045,5.420281887054443,5.4925055503845215,7.235283374786377,5.719849109649658
1.539328399929218,4.29583215713501,4.784780025482178,5.516249656677246,4.287372589111328,5.10073184967041,4.99088191986084,5.230783462524414,7.087274074554443,5.439245223999023
1.5414260999532416,3.8210973739624023,4.569491863250732,4.871129035949707,4.096582889556885,4.840502738952637,4.413766384124756,4.654306888580322,6.646425247192383,4.881533145904541
1.544496199931018,3.1800332069396973,4.206475257873535,4.137699127197266,3.7240965366363525,4.339762210845947,3.754936933517456,3.7898733615875244,5.935965061187744,4.16085958480835
1.5474011999322101,2.462435007095337,3.7666356563568115,3.3933017253875732,3.2382285594940186,3.6856822967529297,3.063917875289917,2.687831401824951,4.993347644805908,3.3942885398864746
1.5505605000071228,1.7501877546310425,3.305143117904663,2.680976390838623,2.7105813026428223,2.9720101356506348,2.3613815307617188,1.4178341627120972,3.8631465435028076,2.669787645339966
1.5534083999227732,1.1026408672332764,2.8537466526031494,2.0113232135772705,2.2111406326293945,2.283968687057495,1.6433414220809937,0.06485215574502945,2.5944650173187256,2.0367488861083984
1.5563860000111163,0.5535597205162048,2.421732187271118,1.3745585680007935,1.801216959953308,1.6893843412399292,0.8965310454368591,-1.2756468057632446,1.2430061101913452,1.5029077529907227
1.5594227999681607,0.1132306158542633,2.003443717956543,0.7569607496261597,1.5300899744033813,1.2333201169967651,0.11475826054811478,-2.50512957572937,-0.12474896758794785,1.047828197479248
1.562011000001803,-0.22180694341659546,1.5929304361343384,0.1575649231672287,1.4293595552444458,0.9388455748558044,-0.6854685544967651,-3.5302650928497314,-1.4272791147232056,0.6425444483757019
1.5649912999942899,-0.45797204971313477,1.196405291557312,-0.4022074043750763,1.5085586309432983,0.8101773858070374,-1.458081841468811,-4.271799087524414,-2.5684854984283447,0.26887938380241394
1.568174499901943,-0.6013603806495667,0.8384904265403748,-0.8814542889595032,1.7506968975067139,0.8343454003334045,-2.133732557296753,-4.67570161819458,-3.4495584964752197,-0.06997405737638474
1.5710018000099808,-0.6552273631095886,0.561281681060791,-1.2292817831039429,2.112779378890991,0.9852875471115112,-2.633965253829956,-4.719249725341797,-3.982606887817383,-0.35029336810112
1.5739834000123665,-0.6226674914360046,0.4122561812400818,-1.4013779163360596,2.529768943786621,1.2282648086547852,-2.8915247917175293,-4.417060375213623,-4.111805438995361,-0.5373153686523438
1.5771653999108821,-0.5133983492851257,0.4284243881702423,-1.3750115633010864,2.923774003982544,1.5215362310409546,-2.8682665824890137,-3.8196513652801514,-3.8302769660949707,-0.6001708507537842
1.5799792999168858,-0.3464609384536743,0.6182922124862671,-1.1617136001586914,3.2153875827789307,1.8204649686813354,-2.570011854171753,-3.011125087738037,-3.190253257751465,-0.5300341248512268
1.5829624999314547,-0.15088674426078796,0.9524052143096924,-0.8107191324234009,3.3367762565612793,2.0803043842315674,-2.0484578609466553,-2.095726728439331,-2.297236442565918,-0.3493475317955017
1.585960099939257,0.03816518560051918,1.3645896911621094,-0.4021052420139313,3.241201400756836,2.259643316268921,-1.3940945863723755,-1.1832032203674316,-1.292005181312561,-0.111536905169487
1.588923699920997,0.18419350683689117,1.7632803916931152,-0.032498423010110855,2.908773899078369,2.3213400840759277,-0.7194830179214478,-0.37101319432258606,-0.3230484426021576,0.10847816616296768
1.5920230000047013,0.2582346796989441,2.053706169128418,0.20579344034194946,2.34734845161438,2.236551523208618,-0.13682183623313904,0.2726713716983795,0.4837777316570282,0.23443926870822906
1.5949278000043705,0.24122467637062073,2.158839464187622,0.24345511198043823,1.5871983766555786,1.9853862524032593,0.2628442645072937,0.7176676988601685,1.0482795238494873,0.20660604536533356
1.5979120999109,0.127755805850029,2.0370073318481445,0.04899781197309494,0.6756214499473572,1.5619643926620483,0.42632099986076355,0.9712315201759338,1.3463630676269531,0.0003218528290744871
1.6008927999064326,-0.07242351025342941,1.6894927024841309,-0.36462101340293884,-0.3297109305858612,0.9786067605018616,0.3457823693752289,1.0695890188217163,1.4077434539794922,-0.36952438950538635
1.603865599958226,-0.34278520941734314,1.1544986963272095,-0.9448224902153015,-1.3656020164489746,0.2649739384651184,0.054670706391334534,1.0594898462295532,1.294175148010254,-0.8493764996528625
1.6068406999111176,-0.6622713208198547,0.49267101287841797,-1.6154892444610596,-2.368586301803589,-0.5312612652778625,-0.38631924986839294,0.9800990223884583,1.0772740840911865,-1.3627856969833374
1.6099843999836594,-1.010288953781128,-0.23045086860656738,-2.294644832611084,-3.278689384460449,-1.3517111539840698,-0.905983030796051,0.8498384356498718,0.8163367509841919,-1.8290950059890747
1.6128775000106543,-1.3685654401779175,-0.9590139389038086,-2.9099504947662354,-4.043479919433594,-2.1344313621520996,-1.438338041305542,0.6645548939704895,0.5453494191169739,-2.1790084838867188
1.6158495999407023,-1.720953345298767,-1.6544206142425537,-3.4103846549987793,-4.622740268707275,-2.8237907886505127,-1.9335414171218872,0.40530890226364136,0.27169176936149597,-2.3680286407470703
1.6188468999462202,-2.0527236461639404,-2.2950823307037354,-3.769279718399048,-4.993294715881348,-3.3803670406341553,-2.3615729808807373,0.053257402032613754,-0.012219698168337345,-2.3823351860046387
1.621307299938053,-2.3502089977264404,-2.871249198913574,-3.9809696674346924,-5.154682636260986,-3.78788161277771,-2.7114388942718506,-0.39704009890556335,-0.31868377327919006,-2.236947774887085
1.6243338999338448,-2.601884603500366,-3.378539562225342,-4.056491851806641,-5.130748271942139,-4.053408145904541,-2.9883813858032227,-0.9299513101577759,-0.6513485908508301,-1.9730937480926514
1.6273160999407992,-2.7999415397644043,-3.809922456741333,-4.015691757202148,-4.96636438369751,-4.20306921005249,-3.2074480056762695,-1.5105406045913696,-1.001301884651184,-1.6481401920318604
1.630305099999532,-2.9428327083587646,-4.1544575691223145,-3.884214401245117,-4.7197957038879395,-4.272866725921631,-3.391205072402954,-2.0959582328796387,-1.3516873121261597,-1.3269015550613403
1.6333321999991313,-3.033194065093994,-4.39470100402832,-3.6899454593658447,-4.4475417137146,-4.294843673706055,-3.5644891262054443,-2.6464123725891113,-1.682828426361084,-1.068867564201355
1.6363032999215648,-3.0728843212127686,-4.506243705749512,-3.4580259323120117,-4.188935279846191,-4.283202648162842,-3.746511697769165,-3.132197380065918,-1.9770352840423584,-0.9147232174873352
1.6393485999433324,-3.0586178302764893,-4.46055793762207,-3.207329034805298,-3.954122304916382,-4.228273391723633,-3.9440228939056396,-3.5348002910614014,-2.2219603061676025,-0.876582145690918
1.6421424999134615,-2.9730496406555176,-4.226623058319092,-2.943333387374878,-3.718252182006836,-4.0931901931762695,-4.142679691314697,-3.839834451675415,-2.403799057006836,-0.9307906031608582
1.6449691000161693,-2.7832772731781006,-3.77487850189209,-2.652738571166992,-3.426969528198242,-3.820873260498047,-4.301425933837891,-4.024594783782959,-2.499544858932495,-1.0194573402404785
1.647972899954766,-2.454298973083496,-3.08937931060791,-2.3056440353393555,-3.01627779006958,-3.3575589656829834,-4.358673095703125,-4.056814193725586,-2.4769041538238525,-1.0647914409637451
1.650724699953571,-1.9550714492797852,-2.1758265495300293,-1.8640323877334595,-2.435134172439575,-2.668773651123047,-4.245065689086914,-3.8966641426086426,-2.2930760383605957,-0.9914373159408569
1.6535628999117762,-1.277827501296997,-1.0714205503463745,-1.2968066930770874,-1.6680811643600464,-1.7610994577407837,-3.9027481079101562,-3.509868860244751,-1.9062530994415283,-0.7492465376853943
1.6565353999612853,-0.4456682801246643,0.1551762819290161,-0.5947303175926208,-0.7488967180252075,-0.6884015798568726,-3.305009126663208,-2.882568597793579,-1.2887306213378906,-0.33420953154563904
1.6595698000164703,0.4867621958255768,1.410122275352478,0.21738585829734802,0.24332405626773834,0.4531768560409546,-2.4701457023620605,-2.0355913639068604,-0.44023168087005615,0.21100734174251556
1.6625716999405995,1.4428422451019287,2.5887107849121094,1.0765986442565918,1.198845624923706,1.5434516668319702,-1.4640415906906128,-1.029768943786621,0.60150146484375,0.8043635487556458
1.665530400001444,2.3442208766937256,3.5951316356658936,1.894791841506958,2.006241798400879,2.4652881622314453,-0.3861713707447052,0.0428367517888546,1.7641724348068237,1.349805474281311
1.6685268000001088,3.125190258026123,4.357944011688232,2.5763423442840576,2.5796146392822266,3.1281304359436035,0.6509341597557068,1.0736825466156006,2.946424722671509,1.7638633251190186
1.671515499940142,3.7452480792999268,4.839790344238281,3.044720411300659,2.8790645599365234,3.4854164123535156,1.5482373237609863,1.9600515365600586,4.03483247756958,1.997929573059082
1.674527999944985,4.18649435043335,5.034193515777588,3.2585527896881104,2.9134581089019775,3.53523588180542,2.238912582397461,2.621504783630371,4.918426990509033,2.0435566902160645
1.6778189999749884,4.442807197570801,4.955349922180176,3.221520185470581,2.731166362762451,3.307934522628784,2.6988446712493896,3.0103886127471924,5.504814624786377,1.9265003204345703
1.6803858999628574,4.506380558013916,4.625485420227051,2.977644681930542,2.397376537322998,2.848569631576538,2.9442358016967773,3.113154172897339,5.731142997741699,1.6862815618515015
1.6834003999829292,4.362292766571045,4.067533493041992,2.5976922512054443,1.9732367992401123,2.2011873722076416,3.0213208198547363,2.9472734928131104,5.574500560760498,1.3583693504333496
1.6863720999099314,3.9909913539886475,3.303009510040283,2.1555638313293457,1.4989986419677734,1.4012885093688965,2.9899749755859375,2.5528712272644043,5.056246757507324,0.9577139616012573
1.6893672000151128,3.3824408054351807,2.3593597412109375,1.7136144638061523,0.9913315176963806,0.4784608483314514,2.908464193344116,1.9857836961746216,4.240592956542969,0.4818790555000305
1.6920238999882713,2.5546510219573975,1.2824903726577759,1.3135578632354736,0.4521876871585846,-0.5310308337211609,2.8263583183288574,1.3148953914642334,3.229538679122925,-0.07632946968078613
1.6950791999697685,1.5668494701385498,0.1444433480501175,0.9791017174720764,-0.11535239219665527,-1.5725655555725098,2.781120538711548,0.6179647445678711,2.1495308876037598,-0.7079430222511292
1.6979464999167249,0.515194296836853,-0.9599736928939819,0.7253291606903076,-0.6945520043373108,-2.5724050998687744,2.8008840084075928,-0.0236319899559021,1.1299717426300049,-1.3727078437805176
1.7005073999753222,-0.47914427518844604,-1.9230544567108154,0.5695613622665405,-1.247450828552246,-3.440051555633545,2.9081015586853027,-0.5302631258964539,0.2843576669692993,-1.9939825534820557
1.703553200000897,-1.3005974292755127,-2.648679494857788,0.5348039269447327,-1.7221943140029907,-4.089364051818848,3.1206603050231934,-0.8370031714439392,-0.31163322925567627,-2.473209857940674
1.7065004999749362,-1.8670926094055176,-3.075979709625244,0.64566969871521,-2.068087100982666,-4.459958553314209,3.4484477043151855,-0.9060260057449341,-0.6333240270614624,-2.714872360229492
1.709734599920921,-2.151465654373169,-3.197453260421753,0.9152440428733826,-2.253772497177124,-4.536442279815674,3.888759136199951,-0.7368873953819275,-0.70782470703125,-2.6565093994140625
1.7120446999324486,-2.1950550079345703,-3.0701420307159424,1.3229918479919434,-2.286702871322632,-4.361443519592285,4.413894176483154,-0.3763081133365631,-0.61098313331604,-2.2984657287597656
1.7150264999363571,-2.0879769325256348,-2.803081750869751,1.803887128829956,-2.2146036624908447,-4.024164199829102,4.968780994415283,0.08826666325330734,-0.4455000162124634,-1.710741400718689
1.7181532999966294,-1.949896216392517,-2.5365681648254395,2.246224880218506,-2.118589401245117,-3.6446080207824707,5.46814489364624,0.5394615530967712,-0.3218786418437958,-1.024099349975586
1.7204991999315098,-1.8973100185394287,-2.4080450534820557,2.5125577449798584,-2.0907881259918213,-3.3420045375823975,5.809420108795166,0.8545516729354858,-0.336058109998703,-0.3991851508617401
1.7235297999577597,-2.0136311054229736,-2.5203182697296143,2.4665324687957764,-2.2068252563476562,-3.206023931503296,5.887325763702393,0.930006206035614,-0.5500941872596741,0.011120682582259178
1.7265523999230936,-2.3263778686523438,-2.9134578704833984,2.015808343887329,-2.499829053878784,-3.2727065086364746,5.619358062744141,0.7086848616600037,-0.9778010249137878,0.10187911987304688
1.7295221999520436,-2.8007094860076904,-3.554879665374756,1.140797734260559,-2.946955919265747,-3.5160603523254395,4.966631889343262,0.19332922995090485,-1.581777572631836,-0.15995049476623535
1.7321333999279886,-3.3459043502807617,-4.345154762268066,-0.09412626922130585,-3.4701144695281982,-3.8528406620025635,3.945831775665283,-0.5507533550262451,-2.2778990268707275,-0.7316145896911621
1.735277900006622,-3.8365509510040283,-5.141016006469727,-1.5470730066299438,-3.952751636505127,-4.163903713226318,2.632859706878662,-1.4114149808883667,-2.9502065181732178,-1.5067174434661865
1.7381109999259934,-4.143532752990723,-5.7911295890808105,-3.0352976322174072,-4.270636558532715,-4.32465934753418,1.1449123620986938,-2.257390022277832,-3.4748196601867676,-2.3484702110290527
1.741165000014007,-4.165206432342529,-6.1702189445495605,-4.3779191970825195,-4.323740482330322,-4.233893871307373,-0.3823503851890564,-2.969416618347168,-3.745920419692993,-3.1230154037475586
1.7437663999153301,-3.8570075035095215,-6.210405349731445,-5.43828821182251,-4.064836502075195,-3.8407275676727295,-1.824656367301941,-3.4684317111968994,-3.7028379440307617,-3.731386423110962
1.7466351999901235,-3.245459794998169,-5.913471221923828,-6.148658275604248,-3.5120577812194824,-3.1557440757751465,-3.0923776626586914,-3.730008363723755,-3.345060110092163,-4.127679824829102
1.7496577999554574,-2.4209988117218018,-5.345518112182617,-6.5158586502075195,-2.7455177307128906,-2.246037006378174,-4.142972469329834,-3.7800536155700684,-2.7323176860809326,-4.322474956512451
1.7526217999402434,-1.5175586938858032,-4.61351203918457,-6.601919651031494,-1.886523723602295,-1.2177656888961792,-4.976969242095947,-3.6746017932891846,-1.9695476293563843,-4.36891508102417
1.7555889999493957,-0.6780024766921997,-3.835515260696411,-6.495025634765625,-1.068800926208496,-0.19161732494831085,-5.624968528747559,-3.475623607635498,-1.1796616315841675,-4.344754695892334
1.758687499910593,-0.012191646732389927,-3.1075940132141113,-6.2791924476623535,-0.4035329818725586,0.7296750545501709,-6.126523017883301,-3.2251970767974854,-0.4685029983520508,-4.324920177459717
1.7617041999474168,0.42808324098587036,-2.483762741088867,-6.010640621185303,0.0429358184337616,1.478667140007019,-6.509589672088623,-2.9318463802337646,0.10201332718133926,-4.364588260650635
1.7645697999978438,0.658849835395813,-1.9696155786514282,-5.710704326629639,0.26332229375839233,2.0334208011627197,-6.779666900634766,-2.5748414993286133,0.5265649557113647,-4.479409217834473
1.767733299988322,0.7503604292869568,-1.5344113111495972,-5.374691963195801,0.3022759258747101,2.4110846519470215,-6.920973777770996,-2.1219136714935303,0.8484211564064026,-4.645001411437988
1.7706070999847725,0.8036742806434631,-1.1287314891815186,-4.984190464019775,0.24104095995426178,2.657374858856201,-6.902688026428223,-1.549755573272705,1.1441012620925903,-4.800980567932129
1.7735478999093175,0.9161350131034851,-0.7056488394737244,-4.521387577056885,0.1735350489616394,2.827587366104126,-6.691467761993408,-0.8615049719810486,1.4943796396255493,-4.861562728881836
1.77674279990606,1.1520235538482666,-0.24011445045471191,-3.9808542728424072,0.17894738912582397,2.969520092010498,-6.269265651702881,-0.09748214483261108,1.954991340637207,-4.738195419311523
1.779536999994889,1.5186975002288818,0.26137277483940125,-3.3754618167877197,0.2981063723564148,3.106564521789551,-5.6442790031433105,0.6681393384933472,2.5349936485290527,-4.368324279785156
1.782516699982807,1.971076250076294,0.7609293460845947,-2.7354671955108643,0.5246884822845459,3.2358975410461426,-4.857651710510254,1.3405731916427612,3.1898982524871826,-3.735353469848633
1.7856589999282733,2.4163706302642822,1.1935245990753174,-2.108006000518799,0.8023759722709656,3.3237173557281494,-3.9852306842803955,1.8172564506530762,3.821194648742676,-2.8841171264648438
1.788524299976416,2.7381975650787354,1.4822587966918945,-1.5477322340011597,1.0402151346206665,3.3152551651000977,-3.125274658203125,2.0061252117156982,4.293487071990967,-1.9177930355072021
1.7924226999748498,2.8196489810943604,1.5484758615493774,-1.1167311668395996,1.1301227807998657,3.144906997680664,-2.3891403675079346,1.8328677415847778,4.454912185668945,-0.988702118396759
1.7960111999418586,2.5666723251342773,1.328304648399353,-0.8716375827789307,0.9768272042274475,2.7527589797973633,-1.8784692287445068,1.24880051612854,4.165328502655029,-0.25411567091941833
1.7989910999312997,1.9301782846450806,0.789763867855072,-0.8485437035560608,0.522783637046814,2.102792501449585,-1.6615670919418335,0.24026525020599365,3.32767915725708,0.15921713411808014
1.8017315999604762,0.9205911159515381,-0.052398208528757095,-1.0498813390731812,-0.23210500180721283,1.1998118162155151,-1.7543896436691284,-1.164131999015808,1.9157662391662598,0.19530217349529266
1.8046118000056595,-0.389863520860672,-1.131035566329956,-1.4331724643707275,-1.225602626800537,0.09595856815576553,-2.111365556716919,-2.8867876529693604,-0.009332360699772835,-0.11148366332054138
1.8076602999353781,-1.8795181512832642,-2.3322432041168213,-1.9121291637420654,-2.3444669246673584,-1.1156312227249146,-2.630739212036133,-4.803208351135254,-2.3004724979400635,-0.6415659785270691
1.8107998999767005,-3.4002208709716797,-3.513880968093872,-2.3717257976531982,-3.449937343597412,-2.3209965229034424,-3.1757454872131348,-6.750767230987549,-4.743651866912842,-1.2225065231323242
1.8136392999440432,-4.8079938888549805,-4.53323221206665,-2.693528652191162,-4.409657955169678,-3.4110586643218994,-3.605903387069702,-8.548948287963867,-7.092627048492432,-1.6781994104385376
1.8166450000135228,-5.985718250274658,-5.273350715637207,-2.7819135189056396,-5.123443603515625,-4.3042120933532715,-3.8061816692352295,-10.024069786071777,-9.107938766479492,-1.8756225109100342
1.8196983999805525,-6.865139484405518,-5.668532371520996,-2.5902726650238037,-5.541849613189697,-4.963768005371094,-3.7109107971191406,-11.03609848022461,-10.597357749938965,-1.7629748582839966
1.8226272999309003,-7.42523193359375,-5.710721492767334,-2.1319539546966553,-5.667368412017822,-5.393068313598633,-3.3125338554382324,-11.499923706054688,-11.441780090332031,-1.382798671722412
1.8258972999174148,-7.6766037940979,-5.4405317306518555,-1.470230221748352,-5.539487361907959,-5.618839740753174,-2.650758743286133,-11.3921537399292,-11.60343074798584,-0.8496369123458862
1.8286830999422818,-7.644616603851318,-4.928766250610352,-0.6975595951080322,-5.214315414428711,-5.66945219039917,-1.7935450077056885,-10.749002456665039,-11.120713233947754,-0.3108633756637573
1.8311279999325052,-7.3491106033325195,-4.249451637268066,0.09650267660617828,-4.743130683898926,-5.553603649139404,-0.81034916639328,-9.651937484741211,-10.090473175048828,0.10355372726917267
1.834042300004512,-6.7981061935424805,-3.4630398750305176,0.8477935194969177,-4.161503791809082,-5.255762577056885,0.2429761439561844,-8.21202564239502,-8.647643089294434,0.3199475407600403
1.8370102999033406,-5.995221138000488,-2.608365774154663,1.5353577136993408,-3.489835739135742,-4.7480597496032715,1.3329124450683594,-6.552099227905273,-6.947672367095947,0.34613221883773804
1.8400061000138521,-4.962247848510742,-1.7141640186309814,2.1684863567352295,-2.748429775238037,-4.016117572784424,2.435992956161499,-4.798795700073242,-5.156367778778076,0.25178059935569763
1.8435774999670684,-3.7587404251098633,-0.8140841722488403,2.766950845718384,-1.9706624746322632,-3.0856425762176514,3.5222713947296143,-3.074580430984497,-3.4403488636016846,0.14046435058116913
1.8465998999308795,-2.4885075092315674,0.04286077618598938,3.345670700073242,-1.2108228206634521,-2.033726692199707,4.546597480773926,-1.4880050420761108,-1.9516810178756714,0.10993065685033798
1.84937660000287,-1.2916232347488403,0.7870594263076782,3.889725685119629,-0.5422375798225403,-0.9849569797515869,5.440043926239014,-0.1282067447900772,-0.8149284720420837,0.21036984026432037
1.8515663999132812,-0.31436076760292053,1.34073805809021,4.352572917938232,-0.040688008069992065,-0.08243495225906372,6.120353698730469,0.9460874795913696,-0.1074439138174057,0.42879998683929443
1.8544997000135481,0.3276617228984833,1.64022696018219,4.670559883117676,0.2392507940530777,0.5500447750091553,6.510361671447754,1.7128360271453857,0.1552859991788864,0.6967162489891052
1.8574991999194026,0.5749152302742004,1.659412145614624,4.784364223480225,0.2836761176586151,0.8401048183441162,6.5608062744140625,2.1893508434295654,0.024012235924601555,0.9180604219436646
1.8605500999838114,0.4485933184623718,1.4274954795837402,4.659017086029053,0.12931591272354126,0.7905313968658447,6.266819953918457,2.427309274673462,-0.38993039727211,1.00383460521698
1.863684199983254,0.03904835507273674,1.0290281772613525,4.298111438751221,-0.1425219625234604,0.47404104471206665,5.671443939208984,2.4990782737731934,-0.9367071986198425,0.9043604731559753
1.8668079999042675,-0.5168678760528564,0.5868189930915833,3.743732213973999,-0.4267932176589966,0.010814977809786797,4.854033470153809,2.478553056716919,-1.4580775499343872,0.6255308389663696
1.8694639999885112,-1.0676199197769165,0.23490005731582642,3.063302755355835,-0.620659589767456,-0.4632148742675781,3.9102392196655273,2.426027297973633,-1.8144117593765259,0.22460907697677612
1.871982999960892,-1.4761182069778442,0.0889834612607956,2.3312978744506836,-0.6486626267433167,-0.8276677131652832,2.9298717975616455,2.3805792331695557,-1.9047409296035767,-0.21143242716789246
1.8749862000113353,-1.64860999584198,0.21499712765216827,1.605952262878418,-0.480755090713501,-1.005013346672058,1.9711381196975708,2.3506762981414795,-1.685309886932373,-0.5943482518196106
1.8781422999454662,-1.5454949140548706,0.6155897974967957,0.9166399836540222,-0.1369134783744812,-0.9697893261909485,1.0497267246246338,2.3180763721466064,-1.1710587739944458,-0.8645405769348145
1.8805218999041244,-1.1889991760253906,1.2233259677886963,0.25575363636016846,0.3175579905509949,-0.7507468461990356,0.13501575589179993,2.238496780395508,-0.43806225061416626,-1.0105420351028442
1.8836148999398574,-0.6659305691719055,1.907789707183838,-0.42091235518455505,0.7813118100166321,-0.42801377177238464,-0.8460066318511963,2.0407233238220215,0.37720659375190735,-1.0753633975982666
1.8865744000067934,-0.12334265559911728,2.4928619861602783,-1.1887998580932617,1.130462408065796,-0.122657909989357,-1.9946494102478027,1.6294329166412354,1.0867466926574707,-1.1543337106704712
1.8894959000172094,0.25084391236305237,2.7900636196136475,-2.135251522064209,1.2406409978866577,0.02315918169915676,-3.4128541946411133,0.8996402621269226,1.474041223526001,-1.3705377578735352
1.8925210000015795,0.26163485646247864,2.633986711502075,-3.342325210571289,1.007382869720459,-0.12743395566940308,-5.177074432373047,-0.24236589670181274,1.3312952518463135,-1.8483563661575317
1.8951490999897942,-0.2529241740703583,1.9210337400436401,-4.861457347869873,0.3694433271884918,-0.6766402125358582,-7.306291103363037,-1.847122311592102,0.5056278109550476,-2.6801908016204834
1.89810549991671,-1.368888020515442,0.6467298865318298,-6.683761119842529,-0.6666823029518127,-1.6552362442016602,-9.733360290527344,-3.882791519165039,-1.0472874641418457,-3.896209716796875
1.9011447000084445,-3.0373754501342773,-1.0776423215866089,-8.720731735229492,-2.0106451511383057,-2.9989330768585205,-12.29404067993164,-6.211230754852295,-3.2285614013671875,-5.437683582305908
