Timestamp,TP9,AF7,AF8,TP10,Right AUX
0.0,-712.40234375,-817.87109375,-674.31640625,536.1328125,-908.203125
0.00390625,700.1953125,553.22265625,-1000.0,-831.0546875,-367.1875
0.0078125,-895.99609375,-842.7734375,-238.76953125,617.1875,-1000.0
0.01171875,-255.859375,-66.89453125,643.06640625,-829.1015625,-858.88671875
0.015625,-1000.0,-1000.0,475.09765625,-1000.0,514.16015625
0.01953125,-841.30859375,-851.07421875,-623.53515625,384.765625,-860.83984375
0.0234375,526.3671875,521.484375,-1000.0,-846.19140625,-145.5078125
0.02734375,-829.1015625,-815.91796875,-394.53125,750.48828125,-1000.0
0.03125,-36.1328125,210.9375,576.66015625,-653.80859375,-870.1171875
0.03515625,-1000.0,-1000.0,582.03125,-1000.0,517.578125
0.0390625,-845.703125,-889.6484375,-570.80078125,203.125,-846.19140625
0.04296875,511.71875,502.9296875,-1000.0,-857.91015625,12.6953125
0.04499983787536621,-810.05859375,-819.82421875,-377.44140625,799.31640625,-1000.0
0.04890608787536621,358.3984375,548.828125,544.43359375,-542.96875,-1000.0
0.05281233787536621,-1000.0,-875.48828125,559.5703125,-1000.0,270.5078125
0.05671858787536621,-894.53125,-1000.0,-356.4453125,-195.3125,-803.7109375
0.06062483787536621,536.62109375,408.69140625,-1000.0,-951.171875,279.78515625
0.06453108787536621,-835.9375,-843.75,-576.171875,835.9375,-921.875
0.06843733787536621,640.13671875,728.515625,466.30859375,-553.22265625,-1000.0
0.07234358787536621,-807.6171875,-684.5703125,666.50390625,-1000.0,10.7421875
0.07624983787536621,-1000.0,-1000.0,-113.28125,-514.16015625,-863.76953125
0.08015608787536621,388.18359375,246.58203125,-958.49609375,904.78515625,402.83203125
0.08406233787536621,-854.98046875,-858.88671875,-737.79296875,941.89453125,-810.546875
0.08796858787536621,778.3203125,796.38671875,336.42578125,-490.234375,-1000.0
0.10599994659423828,-621.58203125,-563.96484375,676.7578125,-1000.0,-480.95703125
0.10990619659423828,-1000.0,-1000.0,-121.58203125,-655.76171875,952.63671875
0.11381244659423828,221.6796875,-68.359375,-940.91796875,768.5546875,769.04296875
0.11771869659423828,-858.3984375,-919.43359375,-776.3671875,-936.03515625,-634.27734375
0.12162494659423828,802.24609375,822.265625,225.5859375,-320.80078125,-1000.0
0.12553119659423828,-548.828125,-547.8515625,700.1953125,-1000.0,-628.41796875
0.12943744659423828,-1000.0,-1000.0,40.52734375,-772.94921875,852.5390625
0.13334369659423828,-116.2109375,-441.40625,-870.60546875,605.46875,914.55078125
0.13724994659423828,-930.6640625,937.5,-900.390625,-842.28515625,-580.078125
0.14115619659423828,829.1015625,918.9453125,34.1796875,-33.69140625,-1000.0
0.14506244659423828,-552.24609375,-497.55859375,668.9453125,-1000.0,-783.69140625
0.14896869659423828,-1000.0,-1000.0,152.34375,-845.21484375,708.984375
0.13499999046325684,-403.80859375,-653.3203125,-806.15234375,512.6953125,941.89453125
0.13890624046325684,940.4296875,772.94921875,-1000.0,-809.08203125,-604.00390625
0.14281249046325684,950.68359375,-947.75390625,-188.96484375,358.88671875,-1000.0
0.14671874046325684,-428.22265625,-332.51953125,644.04296875,-1000.0,-834.47265625
0.15062499046325684,-1000.0,-1000.0,189.94140625,-894.53125,591.796875
0.15453124046325684,-636.71875,-774.4140625,-809.08203125,536.1328125,-931.640625
0.15843749046325684,773.4375,608.3984375,-1000.0,-833.49609375,-402.83203125
0.16234374046325684,-918.45703125,-853.515625,-272.4609375,626.46484375,-1000.0
0.16624999046325684,-256.34765625,-56.15234375,580.078125,-852.05078125,-835.44921875
0.17015624046325684,-1000.0,-1000.0,232.421875,-987.3046875,521.484375
0.17406249046325684,-769.04296875,-846.6796875,-774.4140625,500.48828125,-833.0078125
0.17796874046325684,596.6796875,520.01953125,-1000.0,-857.421875,-39.0625
0.17999982833862305,-831.54296875,-817.3828125,-429.19921875,749.0234375,-1000.0
0.18390607833862305,103.515625,307.6171875,512.20703125,-684.5703125,-914.0625
0.18781232833862305,-1000.0,-1000.0,383.30078125,-1000.0,452.1484375
0.19171857833862305,-864.2578125,-891.11328125,-709.9609375,342.7734375,-826.66015625
0.19562482833862305,521.484375,534.1796875,-1000.0,-861.81640625,74.70703125
0.19953107833862305,-812.98828125,-827.63671875,-509.765625,814.94140625,-1000.0
0.20343732833862305,379.8828125,557.12890625,520.01953125,-571.77734375,-914.0625
0.20734357833862305,-1000.0,-886.23046875,550.29296875,-1000.0,430.17578125
0.21124982833862305,-898.4375,-979.4921875,-633.30078125,187.5,-803.7109375
0.21515607833862305,537.109375,482.421875,-1000.0,-860.3515625,470.703125
0.21906232833862305,-834.47265625,-849.609375,-569.3359375,801.26953125,-858.3984375
0.22296857833862305,624.0234375,722.65625,423.33984375,-543.9453125,-1000.0
0.22499990463256836,-847.16796875,-709.9609375,488.28125,-1000.0,90.8203125
0.22890615463256836,-1000.0,-1000.0,-594.23828125,-191.40625,-847.65625
0.23281240463256836,477.5390625,340.33203125,-1000.0,-960.9375,636.71875
0.23671865463256836,-858.3984375,-858.3984375,-717.7734375,863.28125,-730.95703125
0.24062490463256836,761.71875,797.36328125,239.2578125,-503.90625,-1000.0
0.24453115463256836,-666.9921875,-580.078125,640.13671875,-1000.0,-200.68359375
0.24843740463256836,-1000.0,-1000.0,-227.05078125,-562.98828125,-948.73046875
0.25234365463256836,330.56640625,99.609375,-981.4453125,855.95703125,685.05859375
0.25624990463256836,-861.328125,-883.30078125,-847.65625,-984.375,-653.80859375
0.26015615463256836,811.03515625,815.4296875,155.76171875,-370.1171875,-1000.0
0.26406240463256836,-565.91796875,-537.59765625,673.828125,-1000.0,-576.66015625
0.26796865463256836,-1000.0,-1000.0,-256.34765625,-712.890625,889.6484375
0.2849998474121094,126.953125,-261.71875,-985.3515625,700.1953125,854.98046875
0.2889060974121094,-873.046875,-991.69921875,-892.08984375,-886.71875,-609.86328125
0.2928123474121094,806.640625,883.7890625,-31.73828125,-231.4453125,-1000.0
0.2967185974121094,-546.38671875,-493.1640625,625.48828125,-1000.0,-728.02734375
0.3006248474121094,-1000.0,-1000.0,-146.484375,-831.0546875,753.90625
0.3045310974121094,-219.23828125,-572.75390625,-935.05859375,511.23046875,970.21484375
0.3084373474121094,-980.95703125,843.26171875,-974.609375,-812.01171875,-535.15625
0.3123435974121094,893.5546875,-992.1875,-229.98046875,163.57421875,-1000.0
0.3162498474121094,-465.33203125,-378.90625,597.65625,-1000.0,-795.41015625
0.3201560974121094,-1000.0,-1000.0,67.87109375,-865.234375,655.76171875
0.3240623474121094,-569.3359375,-731.4453125,-873.53515625,519.04296875,-971.19140625
0.3279685974121094,839.35546875,683.59375,-1000.0,-816.89453125,-458.49609375
0.33099985122680664,-961.9140625,-894.04296875,-320.3125,548.828125,-1000.0
0.33490610122680664,-321.77734375,-227.05078125,582.03125,-929.19921875,-810.05859375
0.33881235122680664,-1000.0,-1000.0,142.578125,-927.24609375,585.44921875
0.34271860122680664,-705.56640625,-828.125,-866.69921875,554.6875,-875.0
0.34662485122680664,683.10546875,535.64453125,-1000.0,-852.5390625,-233.3984375
0.35053110122680664,-863.28125,-825.68359375,-407.2265625,699.21875,-1000.0
0.35443735122680664,-63.96484375,84.47265625,530.76171875,-770.5078125,-848.14453125
0.35834360122680664,-1000.0,-1000.0,187.5,-1000.0,480.95703125
0.36224985122680664,-842.7734375,-860.3515625,-826.171875,458.0078125,-808.59375
0.36615610122680664,511.23046875,520.01953125,-1000.0,-872.0703125,236.328125
0.37006235122680664,-810.05859375,-817.87109375,-551.26953125,820.3125,-1000.0
0.37396860122680664,332.51953125,451.66015625,432.6171875,-584.9609375,-972.65625
0.37599992752075195,-1000.0,-955.078125,395.01953125,-1000.0,394.04296875
0.37990617752075195,-890.625,-930.17578125,-712.40234375,305.17578125,-800.78125
0.38381242752075195,533.203125,520.01953125,-1000.0,-856.4453125,307.6171875
0.38771867752075195,-833.49609375,-844.23828125,-629.39453125,804.6875,-964.35546875
0.39162492752075195,622.55859375,679.6875,415.0390625,-554.19921875,-1000.0
0.39553117752075195,-872.55859375,-769.04296875,515.625,-1000.0,249.0234375
0.39943742752075195,-943.84765625,-1000.0,-626.46484375,3.90625,-813.4765625
0.40334367752075195,563.96484375,409.1796875,-1000.0,-896.484375,514.6484375
0.40724992752075195,-867.67578125,-856.93359375,-640.625,813.4765625,-795.41015625
0.41115617752075195,752.9296875,779.78515625,441.89453125,-544.43359375,-1000.0
0.41506242752075195,-695.80078125,-620.1171875,542.96875,-1000.0,-141.11328125
0.41896867752075195,-1000.0,-1000.0,-607.91015625,-376.46484375,-923.33984375
0.42100000381469727,406.73828125,218.75,-1000.0,945.3125,770.5078125
0.42490625381469727,-866.2109375,-864.2578125,-792.48046875,964.35546875,-621.09375
0.42881250381469727,815.4296875,805.17578125,112.3046875,-393.06640625,-1000.0
0.43271875381469727,-575.68359375,-549.8046875,626.953125,-1000.0,-494.140625
0.43662500381469727,-1000.0,-1000.0,-256.34765625,-635.7421875,928.7109375
0.44053125381469727,234.86328125,-120.1171875,-983.3984375,771.97265625,874.0234375
0.44443750381469727,-858.3984375,-940.4296875,-868.1640625,-910.64453125,-586.42578125
0.44834375381469727,805.17578125,846.19140625,39.0625,-235.3515625,-1000.0
0.45225000381469727,-553.7109375,-521.97265625,670.41015625,-1000.0,-553.7109375
0.45615625381469727,-1000.0,-1000.0,-223.6328125,-756.8359375,898.92578125
0.46006250381469727,-42.96875,-460.44921875,-989.2578125,612.79296875,882.8125
0.46396875381469727,-923.33984375,910.15625,-933.10546875,-833.984375,-597.16796875
0.4649999141693115,855.95703125,964.35546875,-123.046875,104.4921875,-1000.0
0.4689061641693115,-490.234375,-409.66796875,595.703125,-1000.0,-796.875
0.4728124141693115,-1000.0,-1000.0,-138.18359375,-871.09375,676.7578125
0.4767186641693115,-363.28125,-651.85546875,-950.68359375,529.296875,985.3515625
0.4806249141693115,939.94140625,755.859375,-1000.0,-812.01171875,-542.96875
0.4845311641693115,786.62109375,916.50390625,-121.58203125,242.1875,-1000.0
0.4884374141693115,-426.7578125,-295.41015625,665.52734375,-1000.0,-825.1953125
0.4923436641693115,-1000.0,-1000.0,11.71875,-875.0,581.54296875
0.4962499141693115,-647.94921875,-804.19921875,-874.51171875,527.34375,-896.484375
0.5001561641693115,769.53125,594.7265625,-1000.0,-834.9609375,-322.265625
0.5040624141693115,-897.94921875,-842.28515625,-430.17578125,649.90234375,-1000.0
0.5079686641693115,-150.87890625,43.9453125,558.10546875,-849.12109375,-839.35546875
0.5099999904632568,-1000.0,-1000.0,253.41796875,-950.1953125,549.31640625
0.5139062404632568,-775.87890625,-859.375,-831.54296875,567.3828125,-857.91015625
0.5178124904632568,598.6328125,521.484375,-1000.0,-869.62890625,-173.33984375
0.5217187404632568,-831.54296875,-819.82421875,-471.6796875,764.6484375,-1000.0
0.5256249904632568,200.1953125,377.9296875,477.5390625,-681.640625,-888.671875
0.5295312404632568,-1000.0,-987.79296875,323.73046875,-1000.0,444.82421875
0.5334374904632568,-872.55859375,-901.85546875,-752.9296875,399.4140625,-806.15234375
0.5373437404632568,522.94921875,541.015625,-1000.0,-863.76953125,132.32421875
0.5412499904632568,-822.75390625,-840.8203125,-601.5625,813.96484375,-1000.0
0.5451562404632568,566.40625,636.23046875,421.875,-570.80078125,-997.0703125
0.5490624904632568,-906.25,-820.3125,413.57421875,-1000.0,285.64453125
0.5529687404632568,-931.15234375,-1000.0,-682.6171875,205.078125,-794.921875
0.557999849319458,554.6875,481.4453125,-1000.0,-856.4453125,423.33984375
0.561906099319458,-854.00390625,-857.91015625,-719.7265625,799.31640625,-879.39453125
0.565812349319458,702.1484375,756.34765625,308.10546875,-542.96875,-1000.0
0.569718599319458,-780.2734375,-666.9921875,493.1640625,-1000.0,29.296875
0.573624849319458,-1000.0,-1000.0,-655.2734375,-187.98828125,-876.46484375
0.577531099319458,505.859375,322.265625,-1000.0,-969.7265625,620.1171875
0.581437349319458,-878.41796875,-858.88671875,-692.87109375,890.13671875,-690.4296875
0.585343599319458,822.265625,800.29296875,340.8203125,-462.890625,-1000.0
0.589249849319458,-590.33203125,-568.359375,497.0703125,-1000.0,-293.9453125
0.593156099319458,-1000.0,-1000.0,-583.984375,-549.8046875,-986.328125
0.597062349319458,345.703125,47.36328125,-1000.0,849.12109375,840.8203125
0.600968599319458,-866.2109375,-896.484375,-843.26171875,-958.984375,-568.359375
0.5999999046325684,827.63671875,826.171875,-3.90625,-306.640625,-1000.0
0.6039061546325684,-544.43359375,-526.3671875,588.8671875,-1000.0,-633.7890625
0.6078124046325684,-1000.0,-1000.0,-345.21484375,-674.31640625,850.5859375
0.6117186546325684,176.26953125,-314.453125,-1000.0,708.0078125,877.9296875
0.6156249046325684,-875.48828125,980.46875,-935.05859375,-865.234375,-606.4453125
0.6195311546325684,829.58984375,911.62109375,-76.66015625,-23.4375,-1000.0
0.6234374046325684,-474.609375,-458.0078125,662.59765625,-1000.0,-651.3671875
0.6273436546325684,-1000.0,-1000.0,-246.58203125,-794.43359375,832.03125
0.6312499046325684,-167.96875,-587.40234375,-989.74609375,579.1015625,920.41015625
0.6351561546325684,989.74609375,815.91796875,-973.14453125,-814.94140625,-584.9609375
0.6390624046325684,968.26171875,-956.0546875,-279.78515625,354.4921875,-1000.0
0.6429686546325684,-104.98046875,-270.01953125,545.41015625,-1000.0,-830.56640625
0.6469998359680176,-1000.0,-1000.0,-163.0859375,-794.921875,602.5390625
0.6509060859680176,-570.80078125,-729.4921875,-961.42578125,569.3359375,-941.40625
0.6548123359680176,833.0078125,668.45703125,-1000.0,-845.703125,-427.24609375
0.6587185859680176,-925.29296875,-868.1640625,-402.34375,633.30078125,-1000.0
0.6626248359680176,111.328125,-16.11328125,518.06640625,-866.69921875,-853.02734375
0.6665310859680176,-1000.0,-1000.0,19.53125,-846.19140625,554.19921875
0.6704373359680176,-748.046875,-844.23828125,-898.92578125,599.609375,-894.04296875
0.6743435859680176,698.2421875,541.015625,-1000.0,-887.6953125,-315.4296875
0.6782498359680176,-868.1640625,-823.73046875,-467.28515625,780.2734375,-1000.0
0.6821560859680176,272.4609375,267.08984375,536.62109375,-702.63671875,-868.65234375
0.6860623359680176,-996.09375,-1000.0,153.3203125,-1000.0,476.07421875
0.6899685859680176,-890.13671875,-886.23046875,-878.90625,492.1875,-826.66015625
0.7049999237060547,532.71484375,532.71484375,-1000.0,-874.0234375,-1.953125
0.7089061737060547,-835.44921875,-830.078125,-488.76953125,819.82421875,-1000.0
0.7128124237060547,580.56640625,546.875,479.4921875,-583.49609375,-938.96484375
0.7167186737060547,-869.140625,-892.08984375,344.23828125,-1000.0,353.515625
0.7206249237060547,-937.01171875,-955.56640625,-742.67578125,305.17578125,-804.6875
0.7245311737060547,553.22265625,518.5546875,-1000.0,-856.93359375,540.52734375
0.7284374237060547,-848.6328125,-850.5859375,-637.20703125,804.6875,-828.125
0.7323436737060547,680.17578125,709.9609375,362.79296875,-554.19921875,-1000.0
0.7362499237060547,-820.80078125,-731.4453125,447.265625,-1000.0,183.10546875
0.7401561737060547,-957.51953125,-1000.0,-673.33984375,6.8359375,-831.0546875
0.7440624237060547,571.77734375,384.27734375,-1000.0,-904.296875,507.8125
0.7479686737060547,-881.34765625,-858.3984375,-754.8828125,838.37890625,-788.0859375
0.75,800.29296875,791.50390625,249.51171875,-509.765625,-1000.0
0.75390625,-640.13671875,-599.12109375,524.90234375,-1000.0,-202.1484375
0.7578125,-1000.0,-1000.0,-632.8125,-344.23828125,-941.89453125
0.76171875,428.22265625,182.12890625,-1000.0,949.70703125,685.546875
0.765625,-886.23046875,-871.58203125,-785.64453125,977.05078125,-662.59765625
0.76953125,875.0,815.91796875,197.265625,-353.02734375,-1000.0
0.7734375,-493.65234375,-534.1796875,628.90625,-1000.0,-535.15625
0.77734375,-1000.0,-1000.0,-488.28125,-585.44921875,912.59765625
0.78125,291.015625,-157.71484375,-1000.0,808.10546875,887.20703125
0.78515625,-885.7421875,-961.42578125,-793.45703125,-915.52734375,-581.54296875
0.7890625,882.32421875,876.46484375,65.91796875,-203.125,-1000.0
0.79296875,-393.06640625,-475.5859375,610.3515625,-1000.0,-718.75
0.7960000038146973,-1000.0,-1000.0,-280.76171875,-698.2421875,781.25
0.7999062538146973,29.296875,-487.3046875,-980.95703125,671.38671875,916.015625
0.8038125038146973,-953.61328125,882.8125,-976.07421875,-842.28515625,-612.3046875
0.8077187538146973,952.1484375,-1000.0,-216.30859375,169.43359375,-1000.0
0.8116250038146973,-117.1875,-326.171875,606.93359375,-1000.0,-820.3125
0.8155312538146973,-1000.0,-1000.0,-142.08984375,-865.234375,655.2734375
0.8194375038146973,-377.9296875,-679.19921875,-959.47265625,519.04296875,979.4921875
0.8233437538146973,919.43359375,730.95703125,-1000.0,-816.89453125,-562.01171875
0.8272500038146973,-972.16796875,-900.390625,-211.9140625,548.828125,-1000.0
0.8311562538146973,104.4921875,-139.6484375,587.890625,-929.19921875,-848.14453125
0.8350625038146973,-1000.0,-1000.0,-105.95703125,-927.24609375,552.734375
0.8389687538146973,-675.29296875,-816.40625,-931.15234375,554.6875,-890.625
0.8399999141693115,775.390625,571.2890625,-1000.0,-854.98046875,-322.75390625
0.8439061641693115,-899.90234375,-835.44921875,-450.68359375,708.49609375,-1000.0
0.8478124141693115,236.328125,98.6328125,517.578125,-794.921875,-849.609375
0.8517186641693115,-1000.0,-1000.0,146.97265625,-964.35546875,508.7890625
0.8556249141693115,-829.1015625,-866.2109375,-867.67578125,577.1484375,-833.0078125
0.8595311641693115,620.1171875,523.92578125,-1000.0,-888.18359375,-40.0390625
0.8634374141693115,-850.5859375,-819.3359375,-517.578125,827.63671875,-1000.0
0.8673436641693115,459.9609375,398.4375,505.859375,-598.6328125,-870.60546875
0.8712499141693115,-916.015625,-979.00390625,404.296875,-1000.0,484.375
0.8751561641693115,-917.96875,-912.109375,-764.16015625,401.3671875,-806.15234375
0.8790624141693115,545.8984375,530.2734375,-1000.0,-862.79296875,298.828125
0.8829686641693115,-847.65625,-836.42578125,-531.73828125,813.96484375,-967.7734375
0.8869998455047607,669.921875,628.41796875,467.28515625,-571.2890625,-1000.0
0.8909060955047607,-812.01171875,-818.359375,382.32421875,-1000.0,271.484375
0.8948123455047607,-954.1015625,-1000.0,-740.234375,205.078125,-803.7109375
0.8987185955047607,565.4296875,430.17578125,-1000.0,-856.4453125,538.57421875
0.9026248455047607,-867.67578125,-852.5390625,-693.84765625,799.31640625,-823.73046875
0.9065310955047607,757.32421875,754.8828125,346.19140625,-542.96875,-1000.0
0.9104373455047607,-715.33203125,-654.78515625,534.1796875,-1000.0,70.80078125
0.9143435955047607,-1000.0,-1000.0,-634.27734375,-183.10546875,-875.0
0.9182498455047607,491.2109375,254.8828125,-1000.0,-981.4453125,705.56640625
0.9221560955047607,-869.62890625,-857.91015625,-791.015625,926.7578125,-664.55078125
0.9260623455047607,812.98828125,797.8515625,199.70703125,-408.203125,-1000.0
0.9299685955047607,-582.03125,-558.10546875,619.140625,-1000.0,-110.3515625
0.931999921798706,-1000.0,-1000.0,-551.26953125,-456.54296875,-933.59375
0.935906171798706,342.28515625,-72.265625,-1000.0,876.46484375,781.73828125
0.939812421798706,-882.8125,-925.29296875,-813.4765625,-963.37890625,-574.70703125
0.943718671798706,835.9375,827.63671875,69.3359375,-268.5546875,-1000.0
0.947624921798706,-511.23046875,-543.9453125,630.859375,-1000.0,-651.85546875
0.951531171798706,-1000.0,-1000.0,-300.78125,-704.58984375,833.0078125
0.955437421798706,5.37109375,-449.21875,-988.76953125,684.08203125,923.828125
0.959343671798706,-900.390625,935.05859375,-885.7421875,-857.91015625,-573.2421875
0.963249921798706,823.2421875,917.48046875,-104.4921875,-29.78515625,-1000.0
0.967156171798706,-514.6484375,-502.44140625,621.09375,-1000.0,-744.140625
0.971062421798706,-1000.0,-1000.0,-143.5546875,-845.703125,737.3046875
0.974968671798706,-378.41796875,-660.64453125,-944.3359375,512.6953125,966.796875
0.9749999046325684,944.82421875,773.4375,-1000.0,-809.08203125,-552.24609375
0.9789061546325684,967.28515625,-957.03125,-268.06640625,358.88671875,-1000.0
0.9828124046325684,-386.71875,-365.234375,594.7265625,-1000.0,-828.61328125
0.9867186546325684,-1000.0,-1000.0,-26.3671875,-894.53125,582.03125
0.9906249046325684,-634.765625,-785.64453125,-916.50390625,536.1328125,-903.80859375
0.9945311546325684,769.04296875,603.02734375,-1000.0,-834.9609375,-340.8203125
0.9984374046325684,-905.76171875,-859.86328125,-240.72265625,631.8359375,-1000.0
1.0023436546325684,-220.21484375,-129.8828125,637.6953125,-865.72265625,-846.6796875
1.0062499046325684,-1000.0,-1000.0,28.80859375,-945.80078125,538.57421875
1.0101561546325684,-768.5546875,-844.23828125,-893.06640625,565.91796875,-854.4921875
1.0140624046325684,594.7265625,518.5546875,-1000.0,-870.1171875,-178.7109375
1.0179686546325684,-828.125,-817.3828125,-498.046875,767.578125,-1000.0
1.0199999809265137,149.90234375,196.2890625,489.74609375,-688.4765625,-883.30078125
1.0239062309265137,-1000.0,-1000.0,307.6171875,-1000.0,455.56640625
1.0278124809265137,-864.2578125,-874.0234375,-773.92578125,433.10546875,-813.96484375
1.0317187309265137,518.5546875,525.87890625,-1000.0,-868.65234375,119.62890625
1.0356249809265137,-816.40625,-821.77734375,-564.453125,818.359375,-1000.0
1.0395312309265137,518.5546875,520.5078125,479.98046875,-580.56640625,-958.49609375
1.0434374809265137,-942.3828125,-906.73828125,441.40625,-1000.0,361.328125
1.0473437309265137,-922.36328125,-976.5625,-720.21484375,271.97265625,-799.8046875
1.0512499809265137,550.78125,471.19140625,-1000.0,-856.93359375,461.42578125
1.0551562309265137,-849.609375,-842.7734375,-573.73046875,805.6640625,-868.1640625
1.0590624809265137,681.15234375,700.68359375,423.33984375,-554.19921875,-1000.0
1.0629687309265137,-810.05859375,-729.4921875,478.02734375,-1000.0,123.53515625
1.0799999237060547,-980.95703125,-1000.0,-660.15625,-10.25390625,-866.2109375
1.0839061737060547,537.109375,323.73046875,-1000.0,-917.96875,760.7421875
1.0878124237060547,-875.9765625,-855.46875,-658.69140625,865.234375,-595.21484375
1.0917186737060547,797.8515625,789.0625,278.80859375,-469.7265625,-1000.0
1.0956249237060547,-635.25390625,-585.44921875,570.80078125,-1000.0,-304.19921875
1.0995311737060547,-1000.0,-1000.0,-465.8203125,-370.1171875,-991.69921875
1.1034374237060547,389.6484375,63.4765625,-1000.0,933.10546875,811.03515625
1.1073436737060547,-863.76953125,-888.671875,-797.36328125,998.53515625,-610.3515625
1.1112499237060547,813.4765625,812.01171875,198.2421875,-315.4296875,-1000.0
1.1151561737060547,-571.2890625,-546.38671875,692.87109375,-1000.0,-359.375
1.1190624237060547,-1000.0,-1000.0,-321.2890625,-630.37109375,985.3515625
1.1229686737060547,205.078125,-307.6171875,-1000.0,761.23046875,830.56640625
1.125,-857.421875,997.0703125,-873.046875,-889.6484375,-585.44921875
1.12890625,808.10546875,889.6484375,-20.5078125,-110.83984375,-1000.0
1.1328125,-553.22265625,-535.15625,616.69921875,-1000.0,-716.796875
1.13671875,-1000.0,-1000.0,-219.23828125,-777.34375,772.94921875
1.140625,12.6953125,-294.43359375,-961.9140625,597.16796875,655.2734375
1.14453125,-905.2734375,957.51953125,-871.09375,-825.68359375,-705.078125
1.1484375,879.8828125,960.9375,-88.8671875,235.3515625,-1000.0
1.15234375,-382.32421875,-349.609375,611.81640625,-1000.0,-849.609375
1.15625,-1000.0,-1000.0,-62.5,-875.9765625,622.0703125
1.16015625,-560.05859375,-723.14453125,-898.4375,524.90234375,-955.078125
1.1640625,844.23828125,681.15234375,-1000.0,-820.3125,-450.68359375
1.16796875,-950.68359375,-883.30078125,-329.58984375,560.05859375,-1000.0
1.1699998378753662,-284.66796875,-161.1328125,568.359375,-920.41015625,-853.02734375
1.1739060878753662,-1000.0,-1000.0,15.13671875,-929.6875,553.7109375
1.1778123378753662,-701.66015625,-827.1484375,-912.59765625,555.6640625,-894.04296875
1.1817185878753662,681.640625,539.55078125,-1000.0,-853.515625,-322.75390625
1.1856248378753662,-861.328125,-824.21875,-393.5546875,701.66015625,-1000.0
1.1895310878753662,29.78515625,168.45703125,560.05859375,-776.3671875,-842.28515625
1.1934373378753662,-1000.0,-1000.0,260.7421875,-1000.0,485.83984375
1.1973435878753662,-856.4453125,-872.0703125,-793.9453125,488.28125,-811.03515625
1.2012498378753662,516.6015625,525.87890625,-1000.0,-869.62890625,157.2265625
1.2051560878753662,-811.03515625,-822.265625,-512.6953125,814.453125,-1000.0
1.2090623378753662,358.88671875,488.76953125,483.88671875,-583.49609375,-971.6796875
1.2129685878753662,-1000.0,-932.6171875,337.890625,-1000.0,374.0234375
1.2159998416900635,-895.01953125,-937.01171875,-749.0234375,347.16796875,-799.8046875
1.2199060916900635,535.64453125,523.92578125,-1000.0,-874.51171875,259.765625
1.2238123416900635,-835.44921875,-846.6796875,-619.140625,816.40625,-972.16796875
1.2277185916900635,630.859375,687.98828125,426.26953125,-563.4765625,-1000.0
1.2316248416900635,-865.72265625,-760.7421875,464.84375,-1000.0,187.01171875
1.2355310916900635,-945.80078125,-1000.0,-672.36328125,70.3125,-820.3125
1.2394373416900635,565.4296875,408.203125,-1000.0,-883.7890625,593.26171875
1.2433435916900635,-871.58203125,-857.91015625,-647.94921875,811.03515625,-771.484375
1.2472498416900635,768.06640625,783.69140625,435.546875,-546.38671875,-1000.0
1.2511560916900635,-692.87109375,-614.74609375,578.125,-1000.0,-62.5
1.2550623416900635,-1000.0,-1000.0,-605.95703125,-268.06640625,-918.9453125
1.2589685916900635,458.0078125,216.30859375,-1000.0,981.4453125,798.33984375
1.2619998455047607,-882.32421875,-865.72265625,-777.83203125,952.1484375,-574.21875
1.2659060955047607,852.05078125,809.08203125,150.87890625,-375.9765625,-1000.0
1.2698123455047607,-534.66796875,-544.43359375,612.79296875,-1000.0,-492.1875
1.2737185955047607,-1000.0,-1000.0,-375.9765625,-553.7109375,930.17578125
1.2776248455047607,309.5703125,-121.58203125,-1000.0,831.54296875,811.03515625
1.2815310955047607,-868.1640625,-943.359375,-840.33203125,-923.33984375,-617.1875
1.2854373455047607,835.44921875,853.02734375,110.83984375,-208.984375,-1000.0
1.2893435955047607,-489.2578125,-509.27734375,680.17578125,-1000.0,-709.9609375
1.2932498455047607,-1000.0,-1000.0,-271.97265625,-697.265625,795.41015625
1.2971560955047607,24.4140625,-466.30859375,-1000.0,670.41015625,912.109375
1.3010623455047607,-941.89453125,900.87890625,-891.6015625,-841.796875,-610.3515625
1.3049685955047607,920.41015625,978.515625,23.4375,169.43359375,-1000.0
1.304999828338623,-236.81640625,-372.55859375,641.11328125,-1000.0,-809.08203125
1.308906078338623,-1000.0,-1000.0,-192.87109375,-865.234375,667.48046875
1.312812328338623,-369.140625,-657.71484375,-949.21875,519.04296875,979.00390625
1.316718578338623,914.55078125,748.046875,-993.1640625,-816.40625,-560.05859375
1.320624828338623,-971.6796875,-905.76171875,-266.6015625,548.828125,-1000.0
1.324531078338623,71.2890625,-156.73828125,563.96484375,-929.19921875,-851.07421875
1.328437328338623,-1000.0,-1000.0,-20.01953125,-927.24609375,589.84375
1.332343578338623,-667.96875,-785.15625,-895.99609375,554.6875,-959.9609375
1.336249828338623,770.99609375,594.7265625,-1000.0,-854.98046875,-466.796875
1.340156078338623,-898.92578125,-840.8203125,-323.2421875,708.49609375,-1000.0
1.344062328338623,282.2265625,187.5,596.6796875,-795.41015625,-851.5625
1.347968578338623,-1000.0,-1000.0,73.2421875,-964.35546875,552.24609375
1.3499999046325684,-820.80078125,-878.41796875,-901.3671875,576.66015625,-895.5078125
1.3539061546325684,643.5546875,530.76171875,-1000.0,-888.671875,-306.640625
1.3578124046325684,-871.09375,-832.03125,-455.078125,829.58984375,-1000.0
1.3617186546325684,543.9453125,496.09375,509.765625,-609.375,-895.5078125
1.3656249046325684,-841.30859375,-914.55078125,279.78515625,-1000.0,375.9765625
1.3695311546325684,-937.01171875,-923.33984375,-805.6640625,443.84765625,-794.921875
1.3734374046325684,558.10546875,551.7578125,-1000.0,-868.65234375,342.7734375
1.3773436546325684,-871.58203125,-853.515625,-545.41015625,819.3359375,-947.265625
1.3812499046325684,765.13671875,699.21875,435.546875,-582.03125,-1000.0
1.3851561546325684,-706.0546875,-766.11328125,413.0859375,-1000.0,274.90234375
1.3890624046325684,-975.5859375,-1000.0,-731.93359375,285.15625,-809.5703125
1.3929686546325684,570.80078125,494.62890625,-1000.0,-856.93359375,287.109375
1.3949999809265137,-872.55859375,-862.3046875,-676.26953125,806.15234375,-918.45703125
1.3989062309265137,778.3203125,769.53125,361.81640625,-555.17578125,-1000.0
1.4028124809265137,-718.26171875,-652.83203125,500.48828125,-1000.0,-35.64453125
1.4067187309265137,-980.95703125,-1000.0,-677.734375,13.671875,-873.53515625
1.4106249809265137,582.51953125,330.56640625,-1000.0,-921.38671875,466.796875
1.4145312309265137,-894.53125,-860.83984375,-694.3359375,886.71875,-793.9453125
1.4184374809265137,846.19140625,808.10546875,354.98046875,-424.31640625,-1000.0
1.4223437309265137,-569.3359375,-557.12890625,571.77734375,-1000.0,-448.2421875
1.4262499809265137,-1000.0,-1000.0,-610.3515625,-368.65234375,965.8203125
1.4301562309265137,415.52734375,53.7109375,-1000.0,930.17578125,852.5390625
1.4340624809265137,-899.4140625,-898.92578125,-812.01171875,-990.72265625,-594.23828125
1.4379687309265137,917.96875,835.9375,55.17578125,-290.0390625,-1000.0
1.4549999237060547,-389.6484375,-507.32421875,603.515625,-1000.0,-648.92578125
1.4589061737060547,-1000.0,-1000.0,-386.71875,-625.0,843.75
1.4628124237060547,224.609375,-309.08203125,-997.0703125,751.953125,870.60546875
1.4667186737060547,-899.90234375,973.14453125,-927.24609375,-875.9765625,-623.046875
1.4706249237060547,918.9453125,933.59375,-106.4453125,-10.25390625,-1000.0
1.4745311737060547,-276.85546875,-406.25,658.203125,-1000.0,-756.8359375
1.4784374237060547,-1000.0,-1000.0,-224.609375,-783.203125,748.046875
1.4823436737060547,-160.64453125,-575.68359375,-996.09375,596.19140625,918.9453125
1.4862499237060547,973.14453125,816.89453125,-958.984375,-823.2421875,-623.53515625
1.4901561737060547,-988.76953125,-944.3359375,-112.3046875,360.83984375,-1000.0
1.4940624237060547,97.16796875,-203.61328125,625.48828125,-1000.0,-837.890625
1.4979686737060547,-1000.0,-1000.0,-176.7578125,-894.53125,585.44921875
1.5,-585.9375,-738.28125,-955.56640625,536.1328125,-925.78125
1.50390625,838.37890625,670.41015625,-1000.0,-834.47265625,-399.4140625
1.5078125,-922.8515625,-867.1875,-375.48828125,631.8359375,-1000.0
1.51171875,220.703125,-22.94921875,543.9453125,-865.72265625,-845.703125
1.515625,-1000.0,-1000.0,46.875,-945.80078125,539.55078125
1.51953125,-764.6484375,-848.14453125,-901.85546875,565.4296875,-861.328125
1.5234375,708.984375,533.69140625,-1000.0,-872.0703125,-205.078125
1.52734375,-881.8359375,-820.80078125,-476.5625,771.97265625,-1000.0
1.53125,328.125,263.18359375,538.0859375,-699.70703125,-848.14453125
1.53515625,-944.82421875,-1000.0,363.76953125,-1000.0,529.296875
1.5390625,-901.85546875,-884.765625,-793.9453125,492.1875,-838.37890625
1.54296875,539.0625,531.73828125,-1000.0,-874.0234375,-3.41796875
1.5469999313354492,-848.6328125,-828.61328125,-488.28125,819.82421875,-1000.0
1.5509061813354492,661.62109375,549.31640625,486.328125,-583.49609375,-939.94140625
1.5548124313354492,-796.38671875,-892.08984375,386.71875,-1000.0,353.02734375
1.5587186813354492,-952.63671875,-959.47265625,-750.48828125,304.6875,-794.921875
1.5626249313354492,559.08203125,512.6953125,-1000.0,-856.93359375,490.72265625
1.5665311813354492,-854.4921875,-850.09765625,-588.37890625,806.640625,-864.74609375
1.5704374313354492,708.0078125,708.984375,448.2421875,-557.6171875,-1000.0
1.5743436813354492,-795.41015625,-730.46875,489.74609375,-1000.0,141.6015625
1.5782499313354492,-964.35546875,-1000.0,-668.9453125,39.55078125,-837.890625
1.5821561813354492,576.171875,371.58203125,-1000.0,-907.2265625,530.2734375
1.5860624313354492,-889.16015625,-856.93359375,-733.3984375,861.81640625,-774.90234375
1.5899686813354492,828.125,788.57421875,268.5546875,-465.8203125,-1000.0
1.5899999141693115,-601.07421875,-595.21484375,534.66796875,-1000.0,-245.60546875
1.5939061641693115,-1000.0,-1000.0,-628.90625,-337.890625,-963.8671875
1.5978124141693115,417.48046875,138.671875,-1000.0,949.21875,760.25390625
1.6017186641693115,-882.8125,-874.0234375,-769.53125,983.3984375,-619.62890625
1.6056249141693115,869.140625,805.6640625,177.734375,-335.44921875,-1000.0
1.6095311641693115,-482.91015625,-544.43359375,630.859375,-1000.0,-513.671875
1.6134374141693115,-1000.0,-1000.0,-433.59375,-622.0703125,919.921875
1.6173436641693115,210.44921875,-253.90625,-1000.0,783.203125,884.27734375
1.6212499141693115,-863.76953125,-978.515625,-803.7109375,-908.69140625,-579.1015625
1.6251561641693115,820.80078125,855.46875,45.41015625,-218.26171875,-1000.0
1.6290624141693115,-491.69921875,-540.52734375,644.04296875,-1000.0,-693.359375
1.6329686641693115,-1000.0,-1000.0,-206.0546875,-756.8359375,799.8046875
1.6349999904632568,-190.4296875,-582.03125,-956.0546875,605.95703125,926.7578125
1.6389062404632568,-968.26171875,854.00390625,-983.3984375,-828.61328125,-590.33203125
1.6428124904632568,889.16015625,972.65625,-191.89453125,165.52734375,-1000.0
1.6467187404632568,-462.890625,-461.9140625,618.65234375,-1000.0,-791.9921875
1.6506249904632568,-1000.0,-1000.0,-159.1796875,-865.234375,643.5546875
1.6545312404632568,-558.10546875,-736.328125,-964.84375,519.04296875,-944.82421875
1.6584374904632568,845.21484375,687.98828125,-962.40234375,-816.89453125,-410.15625
1.6623437404632568,-958.49609375,-914.55078125,-232.91015625,548.828125,-1000.0
1.6662499904632568,-308.59375,-310.546875,563.96484375,-929.19921875,-825.68359375
1.6701562404632568,-1000.0,-1000.0,-36.1328125,-927.24609375,539.55078125
1.6740624904632568,-704.58984375,-828.125,-911.1328125,554.6875,-843.26171875
1.6779687404632568,685.05859375,541.015625,-1000.0,-854.00390625,-74.70703125
1.680999994277954,-863.28125,-836.42578125,-421.875,704.1015625,-1000.0
1.684906244277954,-61.5234375,-35.15625,510.7421875,-783.203125,-869.62890625
1.688812494277954,-1000.0,-1000.0,226.5625,-1000.0,526.3671875
1.692718744277954,-843.75,-848.6328125,-819.3359375,520.01953125,-832.03125
1.696624994277954,512.20703125,515.625,-1000.0,-879.8828125,5.37109375
1.700531244277954,-801.26953125,-803.7109375,-462.40234375,823.73046875,-1000.0
1.704437494277954,312.01171875,334.9609375,544.43359375,-590.8203125,-871.09375
1.708343744277954,-1000.0,-1000.0,434.5703125,-1000.0,483.88671875
1.712249994277954,-693.359375,-719.7265625,-740.72265625,348.14453125,-806.640625
1.716156244277954,607.421875,580.56640625,-1000.0,-859.86328125,398.92578125
1.720062494277954,-862.79296875,-860.83984375,-514.6484375,809.5703125,-927.24609375
1.723968744277954,614.2578125,615.234375,483.88671875,-562.5,-1000.0
1.7259998321533203,-896.484375,-839.84375,437.01171875,-1000.0,285.15625
1.7299060821533203,-938.4765625,-1000.0,-690.91796875,102.5390625,-812.5
1.7338123321533203,559.08203125,386.23046875,-1000.0,-876.953125,593.75
1.7377185821533203,-856.93359375,-845.703125,-684.5703125,808.59375,-784.1796875
1.7416248321533203,710.44921875,741.2109375,331.0546875,-545.8984375,-1000.0
1.7455310821533203,-748.046875,-659.66796875,553.7109375,-1000.0,76.66015625
1.7494373321533203,-1000.0,-1000.0,-511.71875,-249.51171875,-877.44140625
1.7533435821533203,426.26953125,188.4765625,-1000.0,-994.62890625,748.53515625
1.7572498321533203,-868.65234375,-865.72265625,-785.64453125,907.2265625,-601.07421875
1.7611560821533203,815.4296875,797.36328125,204.1015625,-452.63671875,-1000.0
1.7650623321533203,-576.171875,-557.12890625,601.07421875,-1000.0,-413.57421875
1.7689685821533203,-1000.0,-1000.0,-439.94140625,-582.03125,966.30859375
1.7730000019073486,243.1640625,-175.78125,-1000.0,828.125,848.6328125
1.7769062519073486,-857.421875,-950.1953125,-812.5,-952.63671875,-584.9609375
1.7808125019073486,802.24609375,834.9609375,115.234375,-311.03515625,-1000.0
1.7847187519073486,-549.8046875,-553.22265625,645.99609375,-1000.0,-640.13671875
1.7886250019073486,-1000.0,-1000.0,-204.58984375,-710.9375,834.47265625
1.7925312519073486,-93.26171875,-520.5078125,-958.49609375,672.8515625,933.59375
1.7964375019073486,-923.828125,901.85546875,-931.15234375,-856.4453125,-553.22265625
1.8003437519073486,824.21875,926.26953125,-105.95703125,-30.2734375,-1000.0
1.8042500019073486,-548.828125,-517.578125,640.13671875,-1000.0,-722.65625
1.8081562519073486,-1000.0,-1000.0,-3.90625,-845.703125,751.46484375
1.8120625019073486,-434.5703125,-692.87109375,-893.5546875,512.20703125,979.98046875
1.8159687519073486,917.96875,742.1875,-1000.0,-809.08203125,-515.13671875
1.8309998512268066,977.5390625,-948.2421875,-249.0234375,358.88671875,-1000.0
1.8349061012268066,-391.11328125,-365.72265625,625.48828125,-1000.0,-763.671875
1.8388123512268066,-1000.0,-1000.0,71.2890625,-894.53125,642.578125
1.8427186012268066,-635.7421875,-802.24609375,-889.6484375,536.1328125,-902.83203125
1.8466248512268066,768.06640625,580.078125,-1000.0,-834.47265625,-292.96875
1.8505311012268066,-905.76171875,-854.00390625,-219.7265625,631.8359375,-1000.0
1.8544373512268066,-220.21484375,-115.72265625,680.6640625,-865.72265625,-846.19140625
1.8583436012268066,-1000.0,-1000.0,127.44140625,-945.80078125,535.15625
1.8622498512268066,-768.5546875,-843.75,-856.4453125,565.91796875,-845.703125
1.8661561012268066,595.21484375,516.11328125,-1000.0,-869.62890625,-125.0
1.8700623512268066,-828.125,-814.94140625,-462.890625,764.6484375,-1000.0
1.8739686012268066,147.94921875,243.65234375,502.44140625,-681.640625,-892.08984375
1.875,-1000.0,-1000.0,330.56640625,-1000.0,443.359375
1.87890625,-869.140625,-886.23046875,-737.3046875,399.4140625,-807.12890625
1.8828125,524.90234375,533.69140625,-1000.0,-864.2578125,181.640625
1.88671875,-818.359375,-826.171875,-549.31640625,813.96484375,-1000.0
1.890625,418.9453125,452.1484375,459.47265625,-570.80078125,-972.65625
1.89453125,-976.07421875,-917.96875,461.9140625,-1000.0,352.5390625
1.8984375,-906.25,-979.00390625,-657.2265625,205.078125,-798.828125
1.90234375,542.96875,445.3125,-1000.0,-856.4453125,476.5625
1.90625,-847.65625,-843.75,-584.47265625,799.31640625,-855.46875
1.91015625,687.5,722.65625,488.76953125,-542.96875,-1000.0
1.9140625,-789.0625,-699.21875,527.83203125,-1000.0,65.4296875
1.91796875,-1000.0,-1000.0,-622.55859375,-188.96484375,-861.81640625
1.9199998378753662,485.83984375,294.43359375,-1000.0,-966.30859375,701.171875
1.9239060878753662,-870.60546875,-856.4453125,-735.3515625,880.859375,-665.52734375
1.9278123378753662,803.22265625,797.36328125,234.375,-476.5625,-1000.0
1.9317185878753662,-604.00390625,-576.66015625,599.12109375,-1000.0,-354.4921875
1.9356248378753662,-1000.0,-1000.0,-387.20703125,-559.5703125,985.83984375
1.9395310878753662,303.7109375,75.68359375,-1000.0,849.609375,752.9296875
1.9434373378753662,-858.3984375,-877.9296875,-796.38671875,-968.26171875,-621.58203125
1.9473435878753662,805.6640625,808.10546875,189.94140625,-332.51953125,-1000.0
1.9512498378753662,-557.12890625,-538.0859375,704.1015625,-1000.0,-462.40234375
1.9551560878753662,-1000.0,-1000.0,-225.09765625,-706.54296875,947.75390625
1.9590623378753662,31.73828125,-353.515625,-996.09375,690.91796875,859.86328125
1.9629685878753662,-892.08984375,972.65625,-859.86328125,-871.09375,-585.9375
1.9649999141693115,813.4765625,901.85546875,48.828125,-118.1640625,-1000.0
1.9689061641693115,-547.36328125,-493.1640625,626.953125,-1000.0,-748.046875
1.9728124141693115,-1000.0,-1000.0,-138.18359375,-825.68359375,734.86328125
1.9767186641693115,-300.78125,-609.86328125,-938.4765625,534.66796875,967.28515625
1.9806249141693115,977.5390625,809.08203125,-970.703125,-815.4296875,-551.7578125
1.9845311641693115,937.98828125,-965.8203125,-125.48828125,231.93359375,-1000.0
1.9884374141693115,-413.57421875,-335.44921875,651.85546875,-1000.0,-825.1953125
1.9923436641693115,-1000.0,-1000.0,16.6015625,-875.9765625,609.375
1.9962499141693115,-576.66015625,-741.2109375,-887.6953125,524.4140625,-944.3359375
2.0001561641693115,821.77734375,655.76171875,-1000.0,-820.3125,-423.828125
2.0040624141693115,-935.546875,-870.1171875,-265.625,560.546875,-1000.0
2.0079686641693115,-257.32421875,-99.609375,608.3984375,-920.41015625,-838.37890625
2.009999990463257,-1000.0,-1000.0,70.3125,-930.17578125,566.89453125
2.013906240463257,-700.68359375,-838.8671875,-890.625,555.17578125,-888.671875
2.017812490463257,677.24609375,531.25,-1000.0,-844.23828125,-288.0859375
2.021718740463257,-851.5625,-821.77734375,-304.6875,690.91796875,-1000.0
2.025624990463257,57.6171875,229.00390625,587.40234375,-778.3203125,-858.88671875
2.029531240463257,-1000.0,-1000.0,164.0625,-824.21875,488.76953125
2.033437490463257,-854.98046875,-880.37109375,-801.26953125,563.96484375,-818.84765625
2.037343740463257,518.5546875,530.2734375,-1000.0,-908.203125,33.203125
2.041249990463257,-824.70703125,-829.58984375,-535.15625,835.9375,-1000.0
2.045156240463257,479.98046875,547.36328125,472.65625,-589.35546875,-947.75390625
2.049062490463257,-929.19921875,-890.625,435.05859375,-1000.0,371.09375
2.052968740463257,-917.96875,-955.56640625,-684.5703125,304.6875,-798.33984375
2.055999994277954,544.921875,519.53125,-1000.0,-856.93359375,289.55078125
2.059906244277954,-841.30859375,-852.5390625,-614.2578125,804.6875,-948.2421875
2.063812494277954,653.3203125,716.30859375,433.59375,-554.19921875,-1000.0
2.067718744277954,-845.703125,-724.12109375,488.76953125,-1000.0,126.953125
2.071624994277954,-951.171875,-1000.0,-667.96875,3.90625,-833.984375
2.075531244277954,566.89453125,383.30078125,-1000.0,-896.484375,597.16796875
2.079437494277954,-871.58203125,-858.3984375,-633.30078125,813.96484375,-741.69921875
2.083343744277954,768.06640625,791.50390625,421.38671875,-544.43359375,-1000.0
2.087249994277954,-675.78125,-597.65625,573.73046875,-1000.0,-259.27734375
2.091156244277954,-1000.0,-1000.0,-560.05859375,-375.9765625,-971.6796875
2.095062494277954,404.78515625,170.41015625,-1000.0,943.84765625,829.1015625
2.098968744277954,-866.69921875,-871.58203125,-776.3671875,967.7734375,-579.58984375
2.1009998321533203,713.37890625,810.546875,197.265625,-386.71875,-1000.0
2.1049060821533203,-604.98046875,-538.0859375,670.8984375,-1000.0,-537.109375
2.1088123321533203,-1000.0,-1000.0,-251.953125,-634.765625,910.64453125
2.1127185821533203,202.1484375,-198.73046875,-978.515625,769.53125,824.21875
2.1166248321533203,-866.69921875,-969.7265625,-883.30078125,-905.2734375,-620.60546875
2.1205310821533203,830.078125,870.60546875,73.73046875,-220.21484375,-1000.0
2.1244373321533203,-482.421875,-495.60546875,705.078125,-1000.0,-619.62890625
2.1283435821533203,-1000.0,-1000.0,-185.546875,-767.578125,862.79296875
2.1322498321533203,-157.2265625,-534.1796875,-985.83984375,594.23828125,898.92578125
2.1361560821533203,-972.65625,869.140625,-927.24609375,-825.68359375,-601.07421875
2.1400623321533203,908.69140625,990.72265625,-44.43359375,165.52734375,-1000.0
2.1439685821533203,-366.69921875,-385.7421875,624.51171875,-1000.0,-820.80078125
2.1449999809265137,-1000.0,-1000.0,-129.8828125,-865.234375,639.6484375
2.1489062309265137,-507.8125,-700.1953125,-930.6640625,519.04296875,-991.69921875
2.1528124809265137,871.58203125,714.35546875,-1000.0,-816.89453125,-514.16015625
2.1567187309265137,-964.84375,-903.80859375,-245.1171875,548.828125,-1000.0
2.1606249809265137,-246.58203125,-213.8671875,625.0,-929.19921875,-849.609375
2.1645312309265137,-1000.0,-1000.0,55.17578125,-927.24609375,560.546875
2.1684374809265137,-672.8515625,-814.453125,-873.53515625,554.19921875,-903.80859375
2.1723437309265137,716.30859375,560.05859375,-1000.0,-853.02734375,-351.07421875
2.1762499809265137,-869.62890625,-833.0078125,-383.7890625,698.2421875,-1000.0
2.1801562309265137,24.4140625,67.87109375,582.03125,-793.45703125,-854.00390625
2.1840624809265137,-1000.0,-1000.0,159.1796875,-987.3046875,504.8828125
2.1879687309265137,-814.453125,-860.3515625,-869.62890625,536.1328125,-834.47265625
2.2049999237060547,570.80078125,520.5078125,-1000.0,-878.90625,-74.70703125
2.2089061737060547,-820.80078125,-818.359375,-387.6953125,812.5,-1000.0
2.2128124237060547,332.51953125,410.64453125,574.21875,-614.74609375,-922.8515625
2.2167186737060547,-1000.0,-974.12109375,322.75390625,-1000.0,400.87890625
2.2206249237060547,-891.11328125,-915.52734375,-758.30078125,384.27734375,-798.33984375
2.2245311737060547,533.203125,528.3203125,-1000.0,-862.3046875,190.4296875
2.2284374237060547,-833.0078125,-837.40234375,-551.26953125,814.453125,-1000.0
2.2323436737060547,614.2578125,634.27734375,455.56640625,-571.77734375,-1000.0
2.2362499237060547,-875.0,-813.96484375,464.84375,-1000.0,252.9296875
2.2401561737060547,-941.89453125,-1000.0,-645.01953125,205.078125,-801.26953125
2.2440624237060547,561.5234375,427.734375,-1000.0,-856.4453125,497.55859375
2.2479686737060547,-864.74609375,-853.02734375,-676.7578125,799.31640625,-828.125
2.25,741.2109375,758.7890625,362.3046875,-542.96875,-1000.0
2.25390625,-732.421875,-650.390625,536.1328125,-1000.0,-49.31640625
2.2578125,-1000.0,-1000.0,-612.79296875,-187.98828125,-898.92578125
2.26171875,490.234375,253.41796875,-1000.0,-970.21484375,693.84765625
2.265625,-875.0,-859.375,-733.3984375,891.11328125,-657.2265625
2.26953125,819.3359375,799.8046875,299.8046875,-460.44921875,-1000.0
2.2734375,-583.984375,-556.640625,629.39453125,-1000.0,-406.25
2.27734375,-1000.0,-1000.0,-502.9296875,-558.10546875,968.75
2.28125,304.6875,-77.1484375,-1000.0,845.703125,865.234375
2.28515625,-857.421875,-923.828125,-732.91015625,-958.0078125,-569.82421875
2.2890625,804.19921875,829.58984375,197.75390625,-308.59375,-1000.0
2.29296875,-554.6875,-538.57421875,642.578125,-1000.0,-674.31640625
2.2960000038146973,-1000.0,-1000.0,-217.7734375,-702.1484375,821.2890625
2.2999062538146973,4.39453125,-441.89453125,-955.078125,682.12890625,911.62109375
2.3038125038146973,-898.4375,930.6640625,-955.56640625,-858.3984375,-600.5859375
2.3077187538146973,815.91796875,934.08203125,-111.328125,-29.78515625,-1000.0
2.3116250038146973,-539.55078125,-467.28515625,649.90234375,-1000.0,-776.85546875
2.3155312538146973,-1000.0,-1000.0,-103.515625,-845.21484375,693.84765625
2.3194375038146973,-376.46484375,-655.2734375,-943.84765625,512.6953125,992.1875
2.3233437538146973,943.359375,767.08984375,-972.16796875,-809.08203125,-524.4140625
2.3272500038146973,967.28515625,-939.453125,-98.6328125,358.88671875,-1000.0
2.3311562538146973,-386.71875,-299.8046875,635.7421875,-1000.0,-835.44921875
2.3350625038146973,-1000.0,-1000.0,-28.80859375,-894.53125,578.61328125
2.3389687538146973,-633.7890625,-785.15625,-892.578125,535.64453125,-908.203125
2.3399999141693115,768.06640625,600.5859375,-1000.0,-834.9609375,-356.93359375
2.3439061641693115,-906.73828125,-851.5625,-370.1171875,631.8359375,-1000.0
2.3478124141693115,-195.80078125,-50.29296875,541.50390625,-865.72265625,-842.7734375
2.3517186641693115,-1000.0,-1000.0,125.0,-945.80078125,532.2265625
2.3556249141693115,-771.97265625,-850.09765625,-858.88671875,565.91796875,-847.16796875
2.3595311641693115,595.703125,518.5546875,-1000.0,-869.140625,-125.9765625
2.3634374141693115,-827.1484375,-816.40625,-418.9453125,764.6484375,-1000.0
2.3673436641693115,165.0390625,288.57421875,568.359375,-681.640625,-864.2578125
2.3712499141693115,-1000.0,-1000.0,412.109375,-1000.0,503.41796875
2.3751561641693115,-865.234375,-887.20703125,-739.2578125,399.4140625,-820.3125
2.3790624141693115,518.5546875,532.71484375,-1000.0,-864.74609375,103.02734375
2.3829686641693115,-817.3828125,-830.078125,-484.86328125,814.94140625,-1000.0
2.3869998455047607,547.8515625,578.61328125,503.41796875,-573.2421875,-966.30859375
2.3909060955047607,-929.19921875,-866.69921875,418.9453125,-1000.0,328.61328125
2.3948123455047607,-927.24609375,-990.234375,-715.33203125,218.26171875,-803.22265625
2.3987185955047607,554.19921875,473.6328125,-1000.0,-856.93359375,574.70703125
2.4026248455047607,-854.4921875,-850.5859375,-642.578125,801.7578125,-810.546875
2.4065310955047607,703.125,729.98046875,402.34375,-546.875,-1000.0
2.4104373455047607,-783.203125,-695.3125,548.33984375,-1000.0,127.44140625
2.4143435955047607,-1000.0,-1000.0,-624.51171875,-133.7890625,-851.07421875
2.4182498455047607,519.53125,315.91796875,-1000.0,-952.63671875,638.671875
2.4221560955047607,-880.859375,-856.4453125,-742.67578125,878.90625,-739.2578125
2.4260623455047607,823.73046875,795.41015625,261.23046875,-474.12109375,-1000.0
2.4299685955047607,-592.7734375,-575.1953125,615.234375,-1000.0,-8.7890625
2.429999828338623,-1000.0,-1000.0,-542.96875,-465.8203125,-905.2734375
2.433906078338623,358.88671875,43.45703125,-1000.0,891.6015625,733.88671875
2.437812328338623,-861.81640625,-893.5546875,-764.6484375,-985.3515625,-589.84375
2.441718578338623,813.4765625,816.40625,174.8046875,-324.21875,-1000.0
2.445624828338623,-570.80078125,-542.48046875,649.4140625,-1000.0,-616.69921875
2.449531078338623,-1000.0,-1000.0,-271.484375,-643.06640625,863.28125
2.453437328338623,183.10546875,-325.1953125,-978.515625,749.51171875,903.80859375
2.457343578338623,-861.81640625,985.3515625,-847.65625,-886.71875,-587.890625
2.461249828338623,801.26953125,892.08984375,7.8125,-111.81640625,-1000.0
2.465156078338623,-544.43359375,-500.9765625,647.4609375,-1000.0,-720.703125
2.469062328338623,-1000.0,-1000.0,-138.18359375,-778.3203125,770.99609375
2.472968578338623,-182.12890625,-600.09765625,-936.03515625,598.14453125,938.96484375
2.4749999046325684,-984.375,818.84765625,-993.65234375,-826.171875,-585.44921875
2.4789061546325684,924.31640625,-976.07421875,-209.9609375,218.75,-1000.0
2.4828124046325684,-383.30078125,-353.515625,610.3515625,-1000.0,-825.1953125
2.4867186546325684,-1000.0,-1000.0,-89.35546875,-873.53515625,599.609375
2.4906249046325684,-557.6171875,-737.3046875,-938.4765625,522.94921875,-927.24609375
2.4945311546325684,841.30859375,666.015625,-1000.0,-818.84765625,-392.578125
2.4984374046325684,-942.87109375,-877.44140625,-201.66015625,554.6875,-1000.0
2.5023436546325684,-261.71875,-144.53125,645.01953125,-924.8046875,-837.890625
2.5062499046325684,-1000.0,-1000.0,15.13671875,-928.7109375,525.87890625
2.5101561546325684,-702.1484375,-835.44921875,-896.484375,555.17578125,-839.35546875
2.5140624046325684,680.17578125,532.2265625,-1000.0,-853.515625,-75.68359375
2.5179686546325684,-854.4921875,-822.265625,-440.4296875,701.171875,-1000.0
2.5199999809265137,20.5078125,167.96875,515.625,-776.85546875,-888.18359375
2.5239062309265137,-1000.0,-1000.0,215.8203125,-1000.0,495.1171875
2.5278124809265137,-851.5625,-871.58203125,-820.80078125,488.76953125,-828.61328125
2.5317187309265137,514.6484375,525.390625,-1000.0,-874.51171875,16.11328125
2.5356249809265137,-811.5234375,-821.77734375,-518.06640625,819.82421875,-1000.0
2.5395312309265137,383.30078125,495.1171875,518.06640625,-583.49609375,-899.90234375
2.5434374809265137,-1000.0,-928.22265625,441.40625,-1000.0,437.01171875
2.5473437309265137,-898.92578125,-945.3125,-729.98046875,304.6875,-802.24609375
2.5512499809265137,537.109375,513.671875,-1000.0,-856.93359375,419.43359375
2.5551562309265137,-836.42578125,-845.703125,-559.08203125,804.6875,-896.97265625
2.5590624809265137,631.34765625,690.91796875,439.453125,-554.19921875,-1000.0
2.5629687309265137,-865.72265625,-750.48828125,470.703125,-1000.0,173.33984375
2.5809998512268066,-945.80078125,-1000.0,-680.17578125,3.90625,-849.12109375
2.5849061012268066,564.94140625,379.8828125,-1000.0,-896.484375,738.28125
2.5888123512268066,-864.74609375,-852.5390625,-660.15625,818.84765625,-643.06640625
2.5927186012268066,757.8125,778.80859375,286.62109375,-550.78125,-1000.0
2.5966248512268066,-680.17578125,-605.95703125,396.97265625,-1000.0,-27.34375
2.6005311012268066,-985.83984375,-1000.0,-601.07421875,-276.85546875,-892.578125
2.6044373512268066,433.10546875,192.3828125,-1000.0,977.5390625,769.04296875
2.6083436012268066,-881.34765625,-880.859375,-809.08203125,951.66015625,-594.7265625
2.6122498512268066,822.265625,811.03515625,176.7578125,-378.41796875,-1000.0
2.6161561012268066,-575.68359375,-548.33984375,669.43359375,-1000.0,-300.29296875
2.6200623512268066,-1000.0,-1000.0,-359.375,-628.41796875,-994.140625
2.6239686012268066,216.796875,-198.2421875,-1000.0,773.92578125,800.78125
2.625,-857.91015625,-964.35546875,-818.84765625,-906.73828125,-591.30859375
2.62890625,806.640625,862.79296875,118.65234375,-218.75,-1000.0
2.6328125,-553.7109375,-527.34375,641.6015625,-1000.0,-706.0546875
2.63671875,-1000.0,-1000.0,-235.3515625,-753.90625,783.203125
2.640625,-30.2734375,-431.640625,-970.21484375,608.88671875,833.984375
2.64453125,-922.8515625,907.71484375,-930.6640625,-829.1015625,-622.0703125
2.6484375,874.51171875,964.84375,-77.1484375,166.015625,-1000.0
2.65234375,-441.40625,-406.25,637.6953125,-1000.0,-822.265625
2.65625,-1000.0,-1000.0,-98.6328125,-865.234375,654.78515625
2.66015625,-454.58984375,-693.84765625,-910.15625,519.04296875,997.55859375
2.6640625,891.6015625,718.26171875,-1000.0,-816.89453125,-527.83203125
2.66796875,-976.07421875,-905.2734375,-269.04296875,548.828125,-1000.0
2.669999837875366,-297.8515625,-221.19140625,618.1640625,-929.19921875,-819.3359375
2.673906087875366,-1000.0,-1000.0,0.0,-927.24609375,592.7734375
2.677812337875366,-645.01953125,-810.546875,-919.921875,554.19921875,-907.71484375
2.681718587875366,734.86328125,562.98828125,-1000.0,-854.00390625,-342.7734375
2.685624837875366,-872.55859375,-833.49609375,-306.640625,702.63671875,-1000.0
2.689531087875366,-20.99609375,67.87109375,600.09765625,-795.41015625,-831.0546875
2.693437337875366,-1000.0,-1000.0,235.3515625,-973.6328125,504.39453125
2.697343587875366,-788.57421875,-859.86328125,-795.41015625,558.59375,-816.40625
2.701249837875366,586.42578125,520.5078125,-1000.0,-881.8359375,127.44140625
2.705156087875366,-822.265625,-818.359375,-486.328125,812.5,-1000.0
2.709062337875366,359.86328125,419.921875,479.98046875,-619.140625,-948.73046875
2.712968587875366,-1000.0,-970.21484375,345.703125,-1000.0,410.64453125
2.7309999465942383,-895.01953125,-915.0390625,-742.67578125,400.87890625,-802.24609375
2.7349061965942383,535.64453125,532.71484375,-1000.0,-863.28125,237.3046875
2.7388124465942383,-833.984375,-839.84375,-570.80078125,813.96484375,-993.1640625
2.7427186965942383,618.1640625,641.6015625,470.703125,-570.80078125,-1000.0
2.7466249465942383,-874.0234375,-808.59375,451.66015625,-1000.0,260.7421875
2.7505311965942383,-942.87109375,-1000.0,-684.08203125,205.078125,-809.5703125
2.7544374465942383,562.01171875,437.01171875,-1000.0,-856.93359375,586.42578125
2.7583436965942383,-865.72265625,-854.00390625,-628.90625,798.828125,-779.78515625
2.7622499465942383,744.62890625,759.27734375,453.61328125,-542.96875,-1000.0
2.7661561965942383,-729.4921875,-651.3671875,535.15625,-1000.0,15.625
2.7700624465942383,-1000.0,-1000.0,-640.625,-187.98828125,-894.53125
2.7739686965942383,490.72265625,265.625,-1000.0,-969.7265625,780.76171875
2.760999917984009,-875.0,-858.3984375,-759.765625,889.6484375,-577.1484375
2.764906167984009,818.84765625,799.31640625,188.96484375,-462.40234375,-1000.0
2.768812417984009,-583.984375,-556.640625,588.8671875,-1000.0,-457.03125
2.772718667984009,-1000.0,-1000.0,-454.58984375,-557.6171875,946.77734375
2.776624917984009,304.6875,-65.91796875,-1000.0,845.703125,831.0546875
2.780531167984009,-857.421875,-921.875,-821.2890625,-957.51953125,-602.5390625
2.784437417984009,804.6875,831.0546875,124.51171875,-308.10546875,-1000.0
2.788343667984009,-553.22265625,-533.69140625,692.87109375,-1000.0,-622.55859375
2.792249917984009,-1000.0,-1000.0,-259.765625,-702.1484375,857.421875
2.796156167984009,3.90625,-439.94140625,-1000.0,682.12890625,900.87890625
2.800062417984009,-897.94921875,932.6171875,-894.04296875,-857.91015625,-596.19140625
2.803968667984009,816.40625,932.12890625,65.91796875,-29.78515625,-1000.0
2.804999828338623,-539.0625,-471.19140625,662.109375,-1000.0,-778.3203125
2.808906078338623,-1000.0,-1000.0,-192.87109375,-845.21484375,701.171875
2.812812328338623,-374.0234375,-655.76171875,-941.40625,512.20703125,973.14453125
2.816718578338623,940.4296875,766.11328125,-995.60546875,-809.08203125,-556.15234375
2.820624828338623,970.21484375,-938.4765625,-249.0234375,359.375,-1000.0
2.824531078338623,-349.12109375,-294.43359375,618.1640625,-1000.0,-832.03125
2.828437328338623,-1000.0,-1000.0,14.6484375,-894.53125,595.21484375
2.832343578338623,-639.6484375,-786.62109375,-895.01953125,536.1328125,-932.12890625
2.836249828338623,770.99609375,599.609375,-1000.0,-834.47265625,-401.3671875
2.840156078338623,-906.73828125,-852.05078125,-331.0546875,631.8359375,-1000.0
2.844062328338623,-210.44921875,-48.828125,604.00390625,-865.72265625,-830.56640625
2.847968578338623,-1000.0,-1000.0,154.78515625,-945.80078125,552.734375
2.8499999046325684,-769.04296875,-850.5859375,-874.0234375,565.4296875,-857.421875
2.8539061546325684,594.23828125,519.04296875,-1000.0,-869.62890625,-181.15234375
2.8578124046325684,-827.1484375,-816.89453125,-385.7421875,764.6484375,-1000.0
2.8617186546325684,165.0390625,291.50390625,544.43359375,-682.12890625,-875.48828125
2.8656249046325684,-1000.0,-1000.0,273.4375,-1000.0,426.26953125
2.8695311546325684,-865.234375,-888.18359375,-774.4140625,402.34375,-799.8046875
2.8734374046325684,518.5546875,533.203125,-1000.0,-864.74609375,388.18359375
2.8773436546325684,-818.84765625,-830.56640625,-546.875,814.94140625,-943.84765625
2.8812499046325684,552.734375,580.078125,445.3125,-573.73046875,-1000.0
2.8851561546325684,-924.31640625,-864.74609375,431.640625,-1000.0,330.56640625
2.8890624046325684,-928.22265625,-990.234375,-697.265625,223.14453125,-799.8046875
2.8929686546325684,554.19921875,474.12109375,-1000.0,-856.93359375,437.98828125
2.8949999809265137,-854.4921875,-849.609375,-653.80859375,801.7578125,-881.34765625
2.8989062309265137,703.61328125,727.05078125,401.3671875,-547.36328125,-1000.0
2.9028124809265137,-784.1796875,-698.73046875,520.5078125,-1000.0,77.1484375
2.9067187309265137,-998.046875,-1000.0,-653.3203125,-116.2109375,-855.46875
2.9106249809265137,523.92578125,316.40625,-1000.0,-952.1484375,640.13671875
2.9145312309265137,-875.9765625,-854.98046875,-596.19140625,786.1328125,-702.1484375
2.9184374809265137,817.87109375,792.48046875,414.0625,-508.7890625,-1000.0
2.9223437309265137,-591.30859375,-574.21875,575.68359375,-1000.0,-349.12109375
2.9262499809265137,-1000.0,-1000.0,-552.24609375,-367.67578125,994.62890625
2.9301562309265137,411.1328125,62.5,-1000.0,929.6875,843.75
2.9340624809265137,-884.765625,-899.4140625,-803.7109375,-999.51171875,-583.49609375
2.9379687309265137,649.4140625,625.0,188.4765625,-308.59375,-1000.0
2.9559998512268066,-612.79296875,-616.2109375,694.82421875,-1000.0,-578.125
2.9599061012268066,-1000.0,-1000.0,-224.609375,-639.6484375,883.7890625
2.9638123512268066,180.17578125,-343.75,-944.3359375,750.9765625,895.5078125
2.9677186012268066,-857.421875,990.72265625,-921.38671875,-885.25390625,-586.9140625
2.9716248512268066,810.546875,890.625,-42.96875,-96.6796875,-1000.0
2.9755311012268066,-518.5546875,-503.90625,663.0859375,-1000.0,-720.703125
2.9794373512268066,-1000.0,-1000.0,-130.37109375,-777.83203125,771.484375
2.9833436012268066,-179.19921875,-603.02734375,-960.44921875,596.6796875,938.96484375
2.9872498512268066,-989.74609375,817.87109375,-964.35546875,-824.70703125,-585.44921875
2.9911561012268066,934.08203125,-976.07421875,-49.8046875,258.7890625,-1000.0
2.9950623512268066,-325.68359375,-355.95703125,649.90234375,-1000.0,-829.58984375
2.9989686012268066,-1000.0,-1000.0,-102.05078125,-879.8828125,607.421875
3.000999927520752,-563.4765625,-737.79296875,-921.875,526.3671875,-949.70703125
3.004906177520752,843.26171875,664.55078125,-1000.0,-821.77734375,-440.91796875
3.008812427520752,-940.4296875,-876.46484375,-282.2265625,565.4296875,-1000.0
3.012718677520752,-251.953125,-144.04296875,598.6328125,-916.50390625,-844.7265625
3.016624927520752,-1000.0,-1000.0,94.23828125,-931.15234375,537.59765625
3.020531177520752,-701.66015625,-834.9609375,-866.69921875,555.6640625,-860.83984375
3.024437427520752,678.22265625,532.2265625,-1000.0,-854.00390625,-206.0546875
3.028343677520752,-852.5390625,-821.77734375,-441.40625,701.171875,-1000.0
3.032249927520752,44.921875,171.875,547.8515625,-776.85546875,-846.6796875
3.036156177520752,-1000.0,-1000.0,389.6484375,-1000.0,528.80859375
3.040062427520752,-854.00390625,-872.0703125,-748.046875,488.76953125,-831.0546875
3.043968677520752,515.13671875,525.87890625,-1000.0,-874.51171875,-4.39453125
3.044999837875366,-812.5,-822.75390625,-463.8671875,819.82421875,-1000.0
3.048906087875366,410.15625,499.0234375,501.46484375,-583.49609375,-946.2890625
3.052812337875366,-989.74609375,-924.31640625,380.859375,-1000.0,346.19140625
3.056718587875366,-903.80859375,-946.77734375,-736.328125,304.6875,-795.41015625
3.060624837875366,539.55078125,513.18359375,-1000.0,-856.4453125,423.33984375
3.064531087875366,-836.9140625,-845.703125,-568.359375,804.6875,-913.0859375
3.068437337875366,632.8125,691.40625,458.0078125,-554.19921875,-1000.0
3.072343587875366,-864.2578125,-749.51171875,514.6484375,-1000.0,246.58203125
3.076249837875366,-946.2890625,-1000.0,-625.48828125,4.39453125,-821.2890625
3.080156087875366,565.4296875,378.41796875,-1000.0,-896.97265625,529.78515625
3.084062337875366,-870.1171875,-855.46875,-715.8203125,813.4765625,-773.92578125
3.087968587875366,764.16015625,782.71484375,300.78125,-544.43359375,-1000.0
3.0899999141693115,-681.640625,-606.4453125,561.5234375,-1000.0,-206.0546875
3.0939061641693115,-1000.0,-1000.0,-587.40234375,-375.9765625,-947.75390625
3.0978124141693115,398.92578125,161.1328125,-1000.0,943.84765625,742.1875
3.1017186641693115,-864.74609375,-871.09375,-734.375,967.7734375,-630.859375
3.1056249141693115,813.4765625,805.6640625,259.27734375,-386.71875,-1000.0
3.1095311641693115,-570.80078125,-545.8984375,645.01953125,-1000.0,-499.0234375
3.1134374141693115,-1000.0,-1000.0,-327.1484375,-634.765625,927.734375
3.1173436641693115,205.078125,-212.40234375,-995.60546875,769.53125,881.34765625
3.1212499141693115,-857.91015625,-967.28515625,-812.98828125,-905.2734375,-578.61328125
3.1251561641693115,800.29296875,856.93359375,87.40234375,-219.23828125,-1000.0
3.1290624141693115,-545.41015625,-526.3671875,643.06640625,-1000.0,-708.0078125
3.1329686641693115,-1000.0,-1000.0,-168.9453125,-759.765625,789.55078125
3.134999990463257,-159.1796875,-541.015625,-937.98828125,602.5390625,921.875
3.138906240463257,-963.37890625,870.60546875,-979.00390625,-827.63671875,-603.515625
3.142812490463257,894.04296875,980.46875,-175.29296875,166.015625,-1000.0
3.146718740463257,-465.33203125,-422.8515625,632.8125,-1000.0,-802.734375
3.150624990463257,-1000.0,-1000.0,-105.95703125,-865.234375,648.92578125
3.154531240463257,-399.90234375,-701.171875,-947.75390625,519.04296875,-974.609375
3.158437490463257,902.34375,711.9140625,-986.81640625,-816.89453125,-473.6328125
3.162343740463257,-982.421875,-905.2734375,-221.19140625,548.828125,-1000.0
3.166249990463257,-270.99609375,-231.93359375,612.79296875,-929.19921875,-836.9140625
3.170156240463257,-1000.0,-1000.0,68.359375,-927.24609375,539.0625
3.174062490463257,-665.0390625,-812.98828125,-876.953125,554.19921875,-854.98046875
3.177968740463257,720.703125,559.5703125,-1000.0,-854.00390625,-176.26953125
3.180999994277954,-869.62890625,-833.49609375,-383.30078125,704.1015625,-1000.0
3.184906244277954,-23.92578125,54.19921875,531.73828125,-790.0390625,-869.62890625
3.188812494277954,-1000.0,-1000.0,181.640625,-985.3515625,517.08984375
3.192718744277954,-803.7109375,-857.91015625,-848.6328125,541.9921875,-839.84375
3.196624994277954,568.84765625,519.53125,-1000.0,-880.37109375,-85.9375
3.200531244277954,-821.77734375,-817.3828125,-430.17578125,814.94140625,-1000.0
3.204437494277954,355.95703125,413.0859375,569.82421875,-612.3046875,-874.0234375
3.208343744277954,-1000.0,-974.12109375,424.8046875,-1000.0,467.28515625
3.212249994277954,-895.01953125,-915.52734375,-747.55859375,386.71875,-802.734375
3.216156244277954,534.66796875,529.296875,-1000.0,-862.79296875,290.0390625
3.220062494277954,-832.51953125,-837.890625,-527.83203125,814.453125,-968.26171875
3.223968744277954,614.2578125,637.6953125,459.9609375,-571.2890625,-1000.0
3.2259998321533203,-878.90625,-811.03515625,425.78125,-1000.0,246.09375
3.2299060821533203,-941.89453125,-1000.0,-703.125,204.58984375,-811.03515625
3.2338123321533203,562.01171875,428.22265625,-1000.0,-856.93359375,598.14453125
3.2377185821533203,-866.2109375,-854.00390625,-686.03515625,799.31640625,-781.25
3.2416248321533203,747.55859375,760.7421875,338.8671875,-542.96875,-1000.0
3.2455310821533203,-726.07421875,-648.4375,568.359375,-1000.0,20.01953125
3.2494373321533203,-1000.0,-1000.0,-554.6875,-187.5,-883.7890625
3.2533435821533203,490.72265625,254.39453125,-1000.0,-970.703125,677.24609375
3.2572498321533203,-875.0,-858.88671875,-779.296875,893.06640625,-652.34375
3.2611560821533203,819.3359375,800.29296875,206.0546875,-456.54296875,-1000.0
3.2650623321533203,-583.984375,-555.6640625,589.84375,-1000.0,-474.12109375
3.2689685821533203,-1000.0,-1000.0,-519.04296875,-558.10546875,942.3828125
3.2709999084472656,304.6875,-83.0078125,-1000.0,845.703125,826.66015625
3.2749061584472656,-857.421875,-925.29296875,-794.921875,-958.0078125,-605.46875
3.2788124084472656,804.19921875,829.58984375,144.04296875,-308.59375,-1000.0
3.2827186584472656,-554.6875,-539.55078125,645.99609375,-1000.0,-667.48046875
3.2866249084472656,-1000.0,-1000.0,-276.3671875,-702.1484375,819.82421875
3.2905311584472656,4.8828125,-450.1953125,-976.5625,682.12890625,933.10546875
3.2944374084472656,-900.390625,927.734375,-885.25390625,-858.3984375,-564.94140625
3.2983436584472656,821.77734375,934.5703125,-76.66015625,-30.2734375,-1000.0
3.3022499084472656,-530.76171875,-471.19140625,628.41796875,-1000.0,-749.51171875
3.3061561584472656,-1000.0,-1000.0,-92.7734375,-845.21484375,731.93359375
3.3100624084472656,-374.51171875,-659.1796875,-926.26953125,512.20703125,969.23828125
3.3139686584472656,940.91796875,763.671875,-1000.0,-809.08203125,-545.8984375
3.3299999237060547,969.7265625,-937.98828125,-240.72265625,359.375,-1000.0
3.3339061737060547,-354.4921875,-301.7578125,615.72265625,-1000.0,-779.296875
3.3378124237060547,-1000.0,-1000.0,-37.109375,-894.53125,636.71875
3.3417186737060547,-639.16015625,-787.59765625,-927.24609375,536.1328125,-910.15625
3.3456249237060547,771.484375,597.16796875,-1000.0,-834.9609375,-330.56640625
3.3495311737060547,-906.73828125,-850.5859375,-231.4453125,631.8359375,-1000.0
3.3534374237060547,-220.21484375,-51.7578125,645.01953125,-865.72265625,-836.9140625
3.3573436737060547,-1000.0,-1000.0,50.78125,-945.80078125,522.4609375
3.3612499237060547,-767.578125,-849.609375,-882.8125,565.91796875,-829.1015625
3.3651561737060547,593.75,518.06640625,-1000.0,-869.62890625,-27.83203125
3.3690624237060547,-827.1484375,-815.91796875,-468.26171875,764.6484375,-1000.0
3.3729686737060547,165.0390625,291.50390625,512.20703125,-681.640625,-909.1796875
3.375999927520752,-1000.0,-1000.0,312.5,-1000.0,448.73046875
3.379906177520752,-865.234375,-887.6953125,-762.6953125,398.92578125,-812.01171875
3.383812427520752,518.5546875,532.71484375,-1000.0,-854.98046875,131.34765625
3.387718677520752,-812.01171875,-824.21875,-557.6171875,803.7109375,-1000.0
3.391624927520752,541.9921875,569.3359375,478.515625,-572.75390625,-969.23828125
3.395531177520752,-927.24609375,-866.2109375,349.12109375,-978.02734375,339.35546875
3.399437427520752,-827.63671875,-893.5546875,-744.62890625,282.2265625,-804.6875
3.403343677520752,587.890625,500.9765625,-1000.0,-890.625,517.578125
3.407249927520752,-870.60546875,-866.2109375,-621.58203125,817.3828125,-861.328125
3.411156177520752,710.44921875,738.28125,488.28125,-551.26953125,-1000.0
3.415062427520752,-783.69140625,-696.77734375,547.8515625,-1000.0,250.48828125
3.418968677520752,-1000.0,-1000.0,-657.2265625,-150.87890625,-836.42578125
3.419999837875366,507.8125,310.05859375,-1000.0,-959.47265625,671.38671875
3.423906087875366,-878.41796875,-856.4453125,-736.328125,887.6953125,-670.8984375
3.427812337875366,822.265625,794.921875,234.86328125,-462.890625,-1000.0
3.431718587875366,-589.35546875,-572.265625,573.73046875,-1000.0,-340.8203125
3.435624837875366,-1000.0,-1000.0,-501.953125,-491.69921875,994.62890625
3.439531087875366,339.84375,22.4609375,-1000.0,876.953125,839.84375
3.443437337875366,-862.3046875,-898.4375,-798.828125,-973.6328125,-592.7734375
3.447343587875366,816.40625,818.359375,113.76953125,-311.5234375,-1000.0
3.451249837875366,-553.7109375,-541.9921875,689.94140625,-1000.0,-419.43359375
3.455156087875366,-1000.0,-1000.0,-240.72265625,-668.45703125,960.9375
3.459062337875366,113.28125,-350.5859375,-1000.0,721.19140625,850.5859375
3.462968587875366,-876.953125,976.5625,-870.60546875,-875.0,-584.47265625
3.4649999141693115,810.546875,895.01953125,37.59765625,-77.63671875,-1000.0
3.4689061641693115,-537.109375,-504.39453125,634.765625,-1000.0,-738.28125
3.4728124141693115,-1000.0,-1000.0,-177.734375,-806.640625,740.234375
3.4767186641693115,-235.3515625,-611.328125,-958.49609375,583.0078125,976.07421875
3.4806249141693115,993.65234375,805.6640625,-966.30859375,-819.3359375,-531.73828125
3.4845311641693115,836.42578125,936.03515625,-69.3359375,88.8671875,-1000.0
3.4884374141693115,-429.19921875,-390.625,665.0390625,-1000.0,-798.828125
3.4923436641693115,-1000.0,-1000.0,-49.31640625,-850.09765625,632.8125
3.4962499141693115,-565.91796875,-756.34765625,-892.08984375,513.18359375,-936.03515625
3.5001561641693115,836.9140625,650.87890625,-1000.0,-818.359375,-393.06640625
3.5040624141693115,-935.05859375,-871.58203125,-347.16796875,577.63671875,-1000.0
3.5079686641693115,-242.67578125,-131.34765625,584.9609375,-907.2265625,-827.63671875
3.509999990463257,-1000.0,-1000.0,119.140625,-933.59375,570.3125
3.513906240463257,-701.171875,-838.8671875,-890.13671875,557.12890625,-875.48828125
3.517812490463257,677.734375,528.80859375,-1000.0,-854.98046875,-240.234375
3.521718740463257,-852.05078125,-821.2890625,-384.27734375,706.54296875,-1000.0
3.525624990463257,71.77734375,183.59375,539.0625,-770.99609375,-856.4453125
3.529531240463257,-1000.0,-1000.0,283.69140625,-1000.0,486.81640625
3.533437490463257,-857.91015625,-873.53515625,-770.5078125,488.76953125,-812.98828125
3.537343740463257,519.04296875,526.3671875,-1000.0,-874.51171875,110.3515625
3.541249990463257,-820.80078125,-823.73046875,-538.0859375,819.82421875,-1000.0
3.545156240463257,449.70703125,507.8125,461.42578125,-583.49609375,-972.65625
3.549062490463257,-951.66015625,-916.9921875,410.64453125,-1000.0,366.2109375
3.552968740463257,-912.109375,-954.1015625,-698.2421875,304.6875,-796.875
3.557999849319458,541.9921875,504.39453125,-1000.0,-856.4453125,187.98828125
3.561906099319458,-837.40234375,-844.7265625,-568.359375,804.6875,-998.046875
3.565812349319458,635.7421875,691.40625,439.94140625,-554.19921875,-1000.0
3.569718599319458,-861.81640625,-746.58203125,505.859375,-1000.0,187.5
3.573624849319458,-946.77734375,-1000.0,-662.109375,4.39453125,-826.66015625
3.577531099319458,565.4296875,366.2109375,-1000.0,-896.484375,659.1796875
3.581437349319458,-870.1171875,-854.98046875,-650.390625,813.96484375,-700.68359375
3.585343599319458,763.671875,782.71484375,417.96875,-544.43359375,-1000.0
3.589249849319458,-681.640625,-602.05078125,567.87109375,-1000.0,-209.9609375
3.593156099319458,-1000.0,-1000.0,-557.6171875,-375.9765625,-960.44921875
3.597062349319458,398.92578125,136.23046875,-1000.0,944.3359375,820.3125
3.600968599319458,-864.74609375,-874.51171875,-788.0859375,967.7734375,-570.80078125
3.6009998321533203,812.98828125,807.12890625,133.7890625,-386.71875,-1000.0
3.6049060821533203,-570.80078125,-545.8984375,623.046875,-1000.0,-550.29296875
3.6088123321533203,-1000.0,-1000.0,-302.734375,-634.765625,900.87890625
3.6127185821533203,204.58984375,-237.3046875,-998.046875,769.53125,879.8828125
3.6166248321533203,-856.93359375,-975.09765625,-878.41796875,-905.2734375,-591.30859375
3.6205310821533203,798.828125,860.3515625,58.10546875,-220.21484375,-1000.0
3.6244373321533203,-542.96875,-527.83203125,706.0546875,-1000.0,-588.8671875
3.6283435821533203,-1000.0,-1000.0,-130.37109375,-767.578125,875.48828125
3.6322498321533203,-188.4765625,-559.08203125,-952.1484375,594.23828125,897.94921875
3.6361560821533203,-970.21484375,861.328125,-963.8671875,-825.68359375,-593.26171875
3.6400623321533203,889.16015625,982.421875,-122.55859375,165.52734375,-1000.0
3.6439685821533203,-462.890625,-431.15234375,613.28125,-1000.0,-813.4765625
3.6449999809265137,-1000.0,-1000.0,-118.65234375,-865.234375,641.11328125
3.6489062309265137,-558.10546875,-714.35546875,-935.546875,519.04296875,-979.4921875
3.6528124809265137,845.21484375,697.75390625,-1000.0,-807.12890625,-488.28125
3.6567187309265137,-953.125,-895.99609375,-284.1796875,538.57421875,-1000.0
3.6606249809265137,-314.453125,-238.76953125,575.1953125,-930.6640625,-838.37890625
3.6645312309265137,-1000.0,-1000.0,-19.53125,-731.4453125,546.38671875
3.6684374809265137,-593.26171875,-718.75,-907.2265625,629.8828125,-865.234375
3.6723437309265137,724.609375,584.9609375,-1000.0,-887.20703125,-221.6796875
3.6762499809265137,-877.44140625,-846.6796875,-384.765625,718.75,-1000.0
3.6801562309265137,-20.01953125,69.82421875,589.84375,-785.64453125,-861.81640625
3.6840624809265137,-1000.0,-1000.0,164.0625,-1000.0,512.6953125
3.6879687309265137,-829.58984375,-858.88671875,-861.81640625,504.8828125,-832.51953125
3.7059998512268066,533.203125,519.04296875,-1000.0,-876.953125,-60.05859375
3.7099061012268066,-813.4765625,-816.40625,-399.4140625,820.80078125,-1000.0
3.7138123512268066,358.88671875,417.48046875,594.23828125,-591.796875,-921.38671875
3.7177186012268066,-1000.0,-972.16796875,324.21875,-1000.0,381.34765625
3.7216248512268066,-899.90234375,-925.78125,-761.23046875,339.84375,-791.015625
3.7255311012268066,541.50390625,528.80859375,-1000.0,-859.86328125,360.83984375
3.7294373512268066,-835.9375,-839.35546875,-560.546875,810.05859375,-945.3125
3.7333436012268066,520.5078125,544.921875,438.96484375,-563.96484375,-935.05859375
3.7372498512268066,-908.203125,-837.40234375,498.53515625,-1000.0,330.078125
3.7411561012268066,-927.24609375,-1000.0,-624.51171875,112.79296875,-822.75390625
3.7450623512268066,555.6640625,406.25,-1000.0,-875.0,515.625
3.7489686012268066,-866.2109375,-851.5625,-681.640625,808.59375,-813.96484375
3.750999927520752,757.8125,767.578125,350.5859375,-546.875,-1000.0
3.754906177520752,-710.9375,-636.71875,529.296875,-1000.0,-88.37890625
3.758812427520752,-1000.0,-1000.0,-603.515625,-225.09765625,-911.1328125
3.762718677520752,485.3515625,236.328125,-1000.0,-992.67578125,680.17578125
3.766624927520752,-875.9765625,-864.2578125,-743.65234375,919.43359375,-660.64453125
3.770531177520752,719.7265625,702.1484375,303.22265625,-421.38671875,-1000.0
3.774437427520752,-618.1640625,-586.42578125,639.6484375,-1000.0,-446.2890625
3.778343677520752,-1000.0,-1000.0,-497.0703125,-557.12890625,953.125
3.782249927520752,296.38671875,-127.44140625,-1000.0,843.75,864.2578125
3.786156177520752,-854.4921875,-933.59375,-764.16015625,-950.68359375,-575.68359375
3.790062427520752,804.19921875,835.9375,125.0,-287.109375,-1000.0
3.793968677520752,-554.6875,-539.0625,650.87890625,-1000.0,-680.6640625
3.798999786376953,-1000.0,-1000.0,-187.01171875,-703.125,817.3828125
3.802906036376953,6.8359375,-471.19140625,-946.77734375,682.6171875,910.15625
3.806812286376953,-904.78515625,915.0390625,-952.63671875,-857.421875,-603.515625
3.810718536376953,836.42578125,944.82421875,-131.34765625,-20.01953125,-1000.0
3.814624786376953,-507.8125,-460.9375,633.30078125,-1000.0,-783.203125
3.818531036376953,-1000.0,-1000.0,-66.89453125,-846.6796875,690.91796875
3.822437286376953,-374.51171875,-667.48046875,-930.17578125,513.18359375,985.83984375
3.826343536376953,939.94140625,753.41796875,-998.046875,-809.5703125,-538.0859375
3.830249786376953,977.05078125,-929.6875,-128.90625,359.375,-1000.0
3.834156036376953,-364.2578125,-286.62109375,638.18359375,-1000.0,-839.35546875
3.838062286376953,-1000.0,-1000.0,-47.8515625,-894.53125,568.84765625
3.841968536376953,-634.765625,-793.9453125,-911.1328125,536.1328125,-899.90234375
3.8549997806549072,768.06640625,586.9140625,-1000.0,-834.9609375,-339.35546875
3.8589060306549072,-903.3203125,-845.703125,-333.0078125,631.34765625,-1000.0
3.8628122806549072,-202.63671875,-22.94921875,557.6171875,-865.72265625,-845.703125
3.8667185306549072,-1000.0,-1000.0,141.11328125,-945.80078125,528.3203125
3.8706247806549072,-770.01953125,-852.05078125,-837.40234375,565.4296875,-845.703125
3.8745310306549072,594.23828125,518.06640625,-1000.0,-864.2578125,-120.60546875
3.8784372806549072,-827.1484375,-816.40625,-450.1953125,758.30078125,-1000.0
3.8823435306549072,165.0390625,327.63671875,553.7109375,-679.6875,-864.74609375
3.8862497806549072,-1000.0,-1000.0,365.234375,-985.83984375,496.58203125
3.8901560306549072,-865.234375,-893.06640625,-763.671875,433.10546875,-815.4296875
3.8940622806549072,518.5546875,535.64453125,-1000.0,-880.37109375,141.6015625
3.8979685306549072,-817.3828125,-832.51953125,-501.953125,821.77734375,-1000.0
3.884999990463257,548.33984375,596.19140625,482.421875,-573.73046875,-994.140625
3.888906240463257,-929.19921875,-851.07421875,423.828125,-1000.0,284.1796875
3.892812490463257,-927.24609375,-1000.0,-703.61328125,205.078125,-799.8046875
3.896718740463257,554.19921875,459.9609375,-1000.0,-855.95703125,539.0625
3.900624990463257,-854.00390625,-851.5625,-651.85546875,799.8046875,-830.56640625
3.904531240463257,700.68359375,741.69921875,400.87890625,-542.96875,-1000.0
3.908437490463257,-776.85546875,-677.24609375,553.22265625,-1000.0,105.46875
3.912343740463257,-1000.0,-1000.0,-592.7734375,-187.98828125,-859.375
3.916249990463257,488.28125,293.9453125,-1000.0,-969.7265625,637.6953125
3.920156240463257,-875.0,-856.93359375,-749.51171875,889.6484375,-723.14453125
3.924062490463257,819.3359375,796.875,261.23046875,-462.40234375,-1000.0
3.927968740463257,-583.984375,-566.40625,655.2734375,-1000.0,-44.921875
3.929999828338623,-1000.0,-1000.0,-485.3515625,-557.6171875,-915.52734375
3.933906078338623,305.17578125,-4.8828125,-1000.0,845.21484375,751.953125
3.937812328338623,-857.421875,-904.296875,-789.55078125,-952.63671875,-583.984375
3.941718578338623,805.17578125,819.82421875,144.04296875,-314.453125,-1000.0
3.945624828338623,-557.12890625,-541.015625,655.2734375,-1000.0,-632.32421875
3.949531078338623,-1000.0,-1000.0,-291.015625,-599.609375,849.12109375
3.953437328338623,36.1328125,-387.20703125,-992.67578125,718.75,915.0390625
3.957343578338623,-894.04296875,959.47265625,-851.5625,-875.0,-578.125
3.961249828338623,813.4765625,908.203125,-20.5078125,-20.5078125,-1000.0
3.965156078338623,-545.8984375,-494.140625,649.4140625,-1000.0,-733.3984375
3.969062328338623,-1000.0,-1000.0,-109.375,-833.984375,755.859375
3.972968578338623,-328.61328125,-636.23046875,-931.15234375,529.78515625,949.21875
3.9749999046325684,959.9609375,791.9921875,-998.046875,-812.5,-576.66015625
3.9789061546325684,960.44921875,-959.9609375,-221.19140625,344.23828125,-1000.0
3.9828124046325684,-382.32421875,-348.14453125,607.421875,-1000.0,-830.56640625
3.9867186546325684,-1000.0,-1000.0,-75.1953125,-892.578125,584.47265625
3.9906249046325684,-603.02734375,-761.71875,-935.05859375,534.66796875,-912.59765625
3.9945311546325684,795.41015625,630.859375,-1000.0,-832.03125,-363.28125
3.9984374046325684,-916.50390625,-864.74609375,-227.5390625,617.67578125,-1000.0
4.002343654632568,-224.12109375,-111.81640625,623.046875,-876.46484375,-839.35546875
4.006249904632568,-1000.0,-1000.0,81.0546875,-942.87109375,526.85546875
4.010156154632568,-728.515625,-842.28515625,-870.60546875,562.5,-837.40234375
4.014062404632568,640.625,523.92578125,-1000.0,-863.28125,-86.42578125
4.017968654632568,-839.35546875,-818.84765625,-447.75390625,738.76953125,-1000.0
4.019999980926514,125.0,213.37890625,509.27734375,-726.5625,-893.06640625
4.023906230926514,-1000.0,-1000.0,270.99609375,-1000.0,467.7734375
4.027812480926514,-861.81640625,-876.953125,-775.87890625,455.56640625,-816.89453125
4.031718730926514,517.578125,527.34375,-1000.0,-870.60546875,83.49609375
4.035624980926514,-815.4296875,-823.73046875,-532.71484375,818.84765625,-1000.0
4.039531230926514,491.2109375,523.4375,498.046875,-581.54296875,-941.40625
4.043437480926514,-954.1015625,-908.203125,448.73046875,-1000.0,380.37109375
4.047343730926514,-917.48046875,-966.30859375,-712.890625,284.1796875,-798.828125
4.051249980926514,547.8515625,489.74609375,-1000.0,-856.93359375,435.05859375
4.055156230926514,-847.16796875,-846.19140625,-576.66015625,806.15234375,-885.25390625
4.059062480926514,672.36328125,704.1015625,455.56640625,-555.17578125,-1000.0
4.062968730926514,-827.63671875,-729.4921875,491.69921875,-1000.0,135.25390625
4.080999851226807,-955.56640625,-1000.0,-662.59765625,3.90625,-862.3046875
4.084906101226807,569.82421875,344.7265625,-1000.0,-896.484375,760.25390625
4.088812351226807,-876.46484375,-855.46875,-628.41796875,813.96484375,-610.3515625
4.092718601226807,784.1796875,787.59765625,308.10546875,-544.43359375,-1000.0
4.096624851226807,-655.2734375,-589.35546875,482.91015625,-1000.0,-169.43359375
4.100531101226807,-1000.0,-1000.0,-512.20703125,-375.9765625,-948.2421875
4.104437351226807,399.90234375,88.8671875,-1000.0,943.84765625,801.26953125
4.108343601226807,-864.2578125,-883.7890625,-817.3828125,967.7734375,-589.35546875
4.112249851226807,813.4765625,810.05859375,151.85546875,-386.23046875,-1000.0
4.116156101226807,-570.80078125,-545.8984375,672.8515625,-1000.0,-369.140625
4.120062351226807,-1000.0,-1000.0,-364.74609375,-634.765625,980.46875
4.123968601226807,205.078125,-285.15625,-1000.0,769.53125,843.26171875
4.125,-856.93359375,-994.140625,-835.44921875,-905.2734375,-577.63671875
4.12890625,798.828125,871.09375,59.08203125,-219.7265625,-1000.0
4.1328125,-542.96875,-524.4140625,626.953125,-1000.0,-722.65625
4.13671875,-1000.0,-1000.0,-209.9609375,-767.578125,768.5546875
4.140625,-188.4765625,-582.03125,-962.890625,593.75,944.82421875
4.14453125,-970.21484375,842.28515625,-948.2421875,-820.3125,-576.171875
4.1484375,889.16015625,998.53515625,-111.81640625,159.1796875,-1000.0
4.15234375,-462.890625,-410.15625,625.9765625,-1000.0,-816.89453125
4.15625,-1000.0,-1000.0,-72.75390625,-765.625,628.41796875
4.16015625,-558.10546875,-727.05078125,-899.4140625,553.22265625,-962.40234375
4.1640625,845.21484375,681.640625,-1000.0,-833.0078125,-458.984375
4.16796875,-958.49609375,-891.6015625,-319.82421875,556.640625,-1000.0
4.171999931335449,-308.59375,-209.9609375,575.1953125,-932.12890625,-843.26171875
4.175906181335449,-1000.0,-1000.0,21.484375,-927.24609375,539.55078125
4.179812431335449,-702.63671875,-827.63671875,-905.76171875,554.6875,-861.81640625
4.183718681335449,681.640625,537.59765625,-1000.0,-853.02734375,-213.37890625
4.187624931335449,-858.88671875,-825.1953125,-308.59375,701.66015625,-1000.0
4.191531181335449,-30.2734375,108.88671875,607.91015625,-776.85546875,-842.28515625
4.195437431335449,-1000.0,-1000.0,249.0234375,-1000.0,496.09375
4.199343681335449,-845.703125,-864.2578125,-784.1796875,488.76953125,-810.05859375
4.203249931335449,512.20703125,521.97265625,-1000.0,-874.51171875,223.14453125
4.207156181335449,-810.05859375,-818.84765625,-509.27734375,819.82421875,-1000.0
4.211062431335449,358.3984375,453.125,466.796875,-583.49609375,-969.7265625
4.214968681335449,-1000.0,-951.66015625,391.6015625,-1000.0,394.04296875
4.2149999141693115,-894.53125,-933.10546875,-720.703125,304.6875,-801.26953125
4.2189061641693115,535.64453125,516.6015625,-1000.0,-856.93359375,312.5
4.2228124141693115,-835.9375,-841.796875,-613.28125,810.05859375,-958.984375
4.2267186641693115,631.34765625,671.875,433.59375,-561.03515625,-1000.0
4.2306249141693115,-865.72265625,-772.94921875,497.0703125,-1000.0,231.4453125
4.2345311641693115,-945.80078125,-1000.0,-650.390625,106.4453125,-819.82421875
4.2384374141693115,565.4296875,394.04296875,-1000.0,-862.3046875,628.41796875
4.2423436641693115,-870.60546875,-854.98046875,-655.76171875,798.828125,-739.2578125
4.2462499141693115,764.6484375,774.90234375,440.4296875,-538.0859375,-1000.0
4.2501561641693115,-684.5703125,-621.09375,587.40234375,-1000.0,-83.984375
4.2540624141693115,-1000.0,-1000.0,-600.09765625,-347.16796875,-926.26953125
4.2579686641693115,412.109375,190.4296875,-1000.0,954.1015625,808.10546875
4.259999990463257,-866.69921875,-867.67578125,-777.83203125,963.8671875,-566.40625
4.263906240463257,815.4296875,805.17578125,161.1328125,-383.30078125,-1000.0
4.267812490463257,-575.1953125,-547.8515625,613.28125,-1000.0,-511.23046875
4.271718740463257,-1000.0,-1000.0,-387.20703125,-600.09765625,919.43359375
4.275624990463257,235.3515625,-167.96875,-1000.0,791.9921875,844.7265625
4.279531240463257,-858.88671875,-954.58984375,-800.29296875,984.86328125,-600.09765625
4.283437490463257,805.6640625,851.07421875,141.11328125,-259.27734375,-1000.0
4.287343740463257,-542.48046875,-524.90234375,699.21875,-1000.0,-657.71484375
4.291249990463257,-1000.0,-1000.0,-207.51953125,-740.72265625,834.47265625
4.295156240463257,-97.65625,-508.30078125,-983.88671875,639.6484375,910.15625
4.299062490463257,-942.3828125,890.625,-918.45703125,-837.890625,-599.609375
4.302968740463257,872.55859375,965.33203125,33.203125,126.46484375,-1000.0
4.304999828338623,-475.5859375,-437.5,655.76171875,-1000.0,-799.31640625
4.308906078338623,-1000.0,-1000.0,-159.1796875,-863.28125,668.45703125
4.312812328338623,-430.6640625,-686.03515625,-930.6640625,519.53125,995.60546875
4.316718578338623,905.76171875,728.02734375,-1000.0,-814.453125,-527.83203125
4.320624828338623,-991.2109375,-913.57421875,-269.04296875,464.84375,-1000.0
4.324531078338623,-319.82421875,-240.72265625,619.140625,-965.8203125,-839.84375
4.328437328338623,-1000.0,-1000.0,56.640625,-913.0859375,576.66015625
4.332343578338623,-635.7421875,-806.15234375,-877.44140625,545.8984375,-914.55078125
4.336249828338623,752.44140625,571.2890625,-1000.0,-843.75,-366.69921875
4.340156078338623,-885.7421875,-838.37890625,-368.65234375,663.57421875,-1000.0
4.344062328338623,-89.35546875,30.2734375,597.65625,-836.42578125,-839.35546875
4.347968578338623,-1000.0,-1000.0,217.7734375,-953.125,534.66796875
4.35099983215332,-778.80859375,-856.93359375,-849.609375,568.84765625,-847.16796875
4.35490608215332,596.6796875,520.01953125,-1000.0,-872.55859375,-115.234375
4.35881233215332,-825.68359375,-816.89453125,-418.45703125,773.4375,-1000.0
4.36271858215332,258.7890625,372.0703125,527.83203125,-669.921875,-888.671875
4.36662483215332,-1000.0,-994.140625,322.265625,-1000.0,414.55078125
4.37053108215332,-879.39453125,-903.3203125,-757.32421875,399.90234375,-801.7578125
4.37443733215332,526.3671875,534.1796875,-1000.0,-864.2578125,471.19140625
4.37834358215332,-824.21875,-837.40234375,-572.265625,813.96484375,-893.5546875
4.38224983215332,578.61328125,627.9296875,403.80859375,-570.80078125,-1000.0
4.38615608215332,-905.76171875,-821.77734375,451.66015625,-1000.0,290.52734375
4.39006233215332,-934.08203125,-1000.0,-677.734375,205.078125,-806.15234375
4.39396858215332,557.12890625,445.80078125,-1000.0,-856.4453125,507.8125
4.396999835968018,-856.93359375,-853.02734375,-657.71484375,799.31640625,-841.30859375
4.400906085968018,710.9375,752.9296875,385.7421875,-542.96875,-1000.0
4.404812335968018,-765.625,-660.64453125,560.546875,-1000.0,65.4296875
4.408718585968018,-1000.0,-1000.0,-609.375,-187.98828125,-874.51171875
4.412624835968018,489.2578125,275.87890625,-1000.0,-969.7265625,666.9921875
4.416531085968018,-875.0,-857.421875,-684.08203125,889.6484375,-660.64453125
4.420437335968018,818.84765625,798.33984375,366.2109375,-462.40234375,-1000.0
4.424343585968018,-583.984375,-560.05859375,601.07421875,-1000.0,-439.94140625
4.428249835968018,-1000.0,-1000.0,-514.16015625,-558.10546875,957.03125
4.432156085968018,304.6875,-45.8984375,-1000.0,845.703125,858.3984375
4.436062335968018,-857.421875,-915.52734375,-828.61328125,-957.51953125,-583.984375
4.439968585968018,804.19921875,826.66015625,63.96484375,-308.59375,-1000.0
4.455999851226807,-554.19921875,-537.109375,648.4375,-1000.0,-655.2734375
4.459906101226807,-1000.0,-1000.0,-176.7578125,-702.1484375,833.984375
4.463812351226807,3.90625,-422.36328125,-938.4765625,682.12890625,912.59765625
4.467718601226807,-897.4609375,942.3828125,-939.94140625,-858.3984375,-589.35546875
4.471624851226807,812.98828125,923.33984375,-86.9140625,-30.2734375,-1000.0
4.475531101226807,-544.43359375,-480.95703125,666.9921875,-1000.0,-678.22265625
4.479437351226807,-1000.0,-1000.0,-73.2421875,-845.21484375,805.17578125
4.483343601226807,-376.46484375,-649.90234375,-941.40625,512.6953125,945.80078125
4.487249851226807,942.87109375,774.4140625,-984.86328125,-809.08203125,-559.08203125
4.491156101226807,966.796875,-945.80078125,-143.5546875,358.88671875,-1000.0
4.495062351226807,-386.71875,-316.89453125,617.1875,-1000.0,-834.9609375
4.498968601226807,-1000.0,-1000.0,-48.828125,-894.53125,585.9375
4.5,-634.765625,-778.80859375,-909.66796875,536.1328125,-921.875
4.50390625,769.04296875,608.3984375,-1000.0,-834.47265625,-385.25390625
4.5078125,-905.76171875,-855.46875,-356.4453125,631.8359375,-1000.0
4.51171875,-219.7265625,-68.359375,555.6640625,-865.72265625,-842.7734375
4.515625,-1000.0,-1000.0,124.51171875,-945.80078125,532.71484375
4.51953125,-761.23046875,-849.12109375,-858.3984375,565.91796875,-848.6328125
4.5234375,600.5859375,518.5546875,-1000.0,-869.62890625,-140.13671875
4.52734375,-828.125,-816.40625,-448.2421875,765.625,-1000.0
4.53125,165.52734375,269.04296875,544.43359375,-684.08203125,-855.95703125
4.53515625,-1000.0,-1000.0,414.55078125,-1000.0,513.671875
4.5390625,-865.234375,-884.27734375,-724.609375,412.109375,-821.2890625
4.54296875,518.5546875,531.25,-1000.0,-865.72265625,92.28515625
4.544999837875366,-817.3828125,-828.61328125,-511.23046875,814.94140625,-1000.0
4.548906087875366,548.33984375,569.3359375,477.05078125,-573.73046875,-977.5390625
4.552812337875366,-929.19921875,-874.51171875,404.78515625,-1000.0,312.98828125
4.556718587875366,-927.24609375,-984.375,-717.28515625,226.5625,-794.921875
4.560624837875366,554.19921875,479.00390625,-1000.0,-856.93359375,445.80078125
4.564531087875366,-854.98046875,-849.609375,-592.7734375,803.22265625,-890.625
4.568437337875366,704.1015625,724.12109375,437.98828125,-549.8046875,-1000.0
4.572343587875366,-786.62109375,-704.1015625,533.69140625,-1000.0,170.8984375
4.576249837875366,-991.69921875,-1000.0,-583.0078125,-95.21484375,-836.42578125
4.580156087875366,532.71484375,327.63671875,-1000.0,-938.96484375,568.84765625
4.584062337875366,-879.8828125,-856.93359375,-748.046875,867.1875,-729.98046875
4.587968587875366,814.453125,793.9453125,269.53125,-482.421875,-1000.0
4.5899999141693115,-608.3984375,-577.63671875,598.6328125,-1000.0,-345.703125
4.5939061641693115,-1000.0,-1000.0,-547.8515625,-450.1953125,999.0234375
4.5978124141693115,372.0703125,55.17578125,-1000.0,901.3671875,784.66796875
4.6017186641693115,-862.3046875,-890.625,-753.90625,-995.1171875,-613.76953125
4.6056249141693115,812.98828125,812.01171875,225.5859375,-339.35546875,-1000.0
4.6095311641693115,-569.82421875,-545.8984375,674.8046875,-1000.0,-564.94140625
4.6134374141693115,-1000.0,-1000.0,-249.0234375,-649.4140625,894.53125
4.6173436641693115,182.6171875,-322.75390625,-976.5625,749.51171875,885.7421875
4.6212499141693115,-861.81640625,987.79296875,-856.4453125,-891.6015625,-587.890625
4.6251561641693115,801.26953125,888.18359375,7.32421875,-152.83203125,-1000.0
4.6290624141693115,-544.43359375,-506.8359375,639.16015625,-1000.0,-722.16796875
4.6329686641693115,-1000.0,-1000.0,-144.04296875,-774.90234375,770.99609375
4.634999990463257,-185.05859375,-600.09765625,-934.5703125,597.16796875,937.98828125
4.638906240463257,-979.00390625,822.75390625,-993.65234375,-826.171875,-586.9140625
4.642812490463257,911.62109375,-982.91015625,-218.26171875,190.4296875,-1000.0
4.646718740463257,-419.43359375,-375.0,617.67578125,-1000.0,-825.68359375
4.650624990463257,-1000.0,-1000.0,-61.03515625,-869.140625,604.00390625
4.654531240463257,-556.640625,-738.28125,-931.640625,520.99609375,-937.01171875
4.658437490463257,842.28515625,665.0390625,-1000.0,-817.3828125,-410.15625
4.662343740463257,-949.70703125,-880.37109375,-236.81640625,548.828125,-1000.0
4.666249990463257,-282.71484375,-166.50390625,596.19140625,-929.19921875,-836.42578125
4.670156240463257,-1000.0,-1000.0,2.44140625,-927.24609375,523.4375
4.674062490463257,-702.63671875,-833.49609375,-898.92578125,554.6875,-837.40234375
4.677968740463257,681.640625,531.25,-1000.0,-853.515625,-61.5234375
4.680999994277954,-856.93359375,-821.77734375,-433.10546875,701.66015625,-1000.0
4.684906244277954,-8.7890625,158.203125,505.859375,-776.3671875,-890.625
4.688812494277954,-1000.0,-1000.0,268.06640625,-1000.0,494.140625
4.692718744277954,-848.6328125,-870.1171875,-783.69140625,488.76953125,-827.63671875
4.696624994277954,513.18359375,523.92578125,-1000.0,-874.51171875,21.484375
4.700531244277954,-800.78125,-815.91796875,-499.51171875,819.82421875,-1000.0
4.704437494277954,348.14453125,482.91015625,527.83203125,-583.49609375,-899.90234375
4.708343744277954,-1000.0,-929.6875,475.5859375,-1000.0,439.94140625
4.712249994277954,-698.73046875,-845.703125,-724.609375,304.6875,-800.78125
4.716156244277954,611.328125,545.8984375,-1000.0,-856.4453125,405.2734375
4.720062494277954,-869.140625,-861.81640625,-564.94140625,804.6875,-901.85546875
4.723968744277954,646.97265625,700.1953125,430.6640625,-554.19921875,-1000.0
4.726999998092651,-871.09375,-757.8125,464.35546875,-1000.0,149.90234375
4.730906248092651,-946.77734375,-1000.0,-671.875,6.34765625,-831.54296875
4.734812498092651,570.3125,401.3671875,-1000.0,-903.80859375,642.08984375
4.738718748092651,-887.20703125,-863.76953125,-696.2890625,840.33203125,-718.75
4.742624998092651,823.73046875,806.640625,319.82421875,-525.390625,-1000.0
4.746531248092651,-631.8359375,-601.5625,604.4921875,-1000.0,-251.46484375
4.750437498092651,-1000.0,-1000.0,-519.04296875,-213.8671875,-941.40625
4.754343748092651,508.30078125,288.0859375,-1000.0,989.74609375,300.78125
4.758249998092651,-910.15625,-878.41796875,-785.64453125,967.7734375,-899.4140625
4.762156248092651,924.31640625,862.79296875,209.9609375,-317.87109375,-1000.0
4.766062498092651,-402.83203125,-450.68359375,629.39453125,-1000.0,-695.3125
4.769968748092651,-1000.0,-1000.0,-527.34375,-580.078125,873.53515625
4.769999980926514,316.89453125,-14.6484375,-1000.0,815.4296875,581.54296875
4.773906230926514,-884.27734375,-925.78125,-810.546875,-917.96875,-827.63671875
4.777812480926514,885.25390625,874.0234375,51.26953125,-214.84375,-1000.0
4.781718730926514,-380.37109375,-426.26953125,638.671875,-1000.0,-758.7890625
4.785624980926514,-1000.0,-1000.0,-280.76171875,-755.859375,752.9296875
4.789531230926514,10.25390625,-500.48828125,-988.76953125,606.93359375,955.078125
4.793437480926514,-916.9921875,894.04296875,-902.34375,-828.61328125,-563.96484375
4.797343730926514,880.37109375,975.09765625,-120.1171875,166.015625,-1000.0
4.801249980926514,-374.51171875,-414.0625,609.375,-1000.0,-798.828125
4.805156230926514,-1000.0,-1000.0,-120.60546875,-865.234375,678.22265625
4.809062480926514,-409.66796875,-695.80078125,-937.98828125,519.04296875,974.609375
4.812968730926514,917.96875,718.75,-1000.0,-816.89453125,-556.640625
4.830999851226807,-986.328125,-907.71484375,-318.359375,548.828125,-1000.0
4.834906101226807,-272.94921875,-239.2578125,591.30859375,-928.7109375,-815.4296875
4.838812351226807,-1000.0,-1000.0,38.57421875,-932.6171875,596.6796875
4.842718601226807,-654.296875,-815.4296875,-916.9921875,561.03515625,-904.296875
4.846624851226807,730.95703125,559.5703125,-1000.0,-856.4453125,-333.0078125
4.850531101226807,-872.0703125,-835.44921875,-310.05859375,605.46875,-1000.0
4.854437351226807,-20.99609375,24.90234375,613.28125,-820.80078125,-836.42578125
4.858343601226807,-1000.0,-1000.0,180.17578125,-972.65625,495.1171875
4.862249851226807,-783.203125,-853.02734375,-853.02734375,530.76171875,-812.98828125
4.866156101226807,599.12109375,517.08984375,-1000.0,-879.8828125,140.13671875
4.870062351226807,-846.19140625,-819.3359375,-481.93359375,826.171875,-1000.0
4.873968601226807,463.37890625,444.3359375,483.88671875,-596.6796875,-966.796875
4.875999927520752,-909.1796875,-957.03125,351.5625,-1000.0,395.5078125
4.879906177520752,-917.96875,-917.96875,-755.859375,383.7890625,-814.94140625
4.883812427520752,541.50390625,536.1328125,-1000.0,-859.375,177.734375
4.887718677520752,-834.9609375,-835.44921875,-605.95703125,802.24609375,-1000.0
4.891624927520752,625.9765625,622.0703125,447.75390625,-551.26953125,-991.69921875
4.895531177520752,-867.67578125,-812.01171875,501.46484375,-1000.0,308.10546875
4.899437427520752,-944.3359375,-1000.0,-677.24609375,12.6953125,-821.2890625
4.903343677520752,557.6171875,370.60546875,-1000.0,-895.01953125,652.83203125
4.907249927520752,-845.703125,-826.66015625,-660.15625,812.98828125,-781.73828125
4.911156177520752,659.1796875,661.62109375,408.69140625,-543.45703125,-1000.0
4.915062427520752,-789.55078125,-714.35546875,544.43359375,-1000.0,328.61328125
4.918968677520752,-1000.0,-1000.0,-597.65625,-379.8828125,-861.328125
4.919999837875366,393.06640625,-18.06640625,-1000.0,953.61328125,770.01953125
4.923906087875366,-865.234375,-915.52734375,-796.875,942.87109375,-558.10546875
4.927812337875366,813.4765625,821.77734375,122.0703125,-434.5703125,-1000.0
4.931718587875366,-576.66015625,-585.44921875,577.1484375,-1000.0,-301.7578125
4.935624837875366,-1000.0,-1000.0,-361.81640625,-607.91015625,997.55859375
4.939531087875366,227.5390625,-92.7734375,-998.046875,798.828125,757.8125
4.943437337875366,-858.88671875,-921.875,-850.5859375,-929.19921875,-600.09765625
4.947343587875366,809.08203125,822.75390625,46.38671875,-263.671875,-1000.0
4.951249837875366,-558.59375,-546.875,677.734375,-1000.0,-491.69921875
4.955156087875366,-1000.0,-1000.0,-198.2421875,-718.26171875,931.15234375
4.959062337875366,3.41796875,-482.421875,-988.76953125,666.9921875,881.8359375
4.962968587875366,-897.4609375,912.109375,-911.62109375,-852.5390625,-580.56640625
4.9649999141693115,812.98828125,938.96484375,-42.48046875,-4.39453125,-1000.0
4.9689061641693115,-544.43359375,-477.05078125,626.953125,-1000.0,-770.99609375
4.9728124141693115,-1000.0,-1000.0,-108.88671875,-849.12109375,674.8046875
4.9767186641693115,-379.8828125,-680.17578125,-928.7109375,514.6484375,-962.40234375
4.9806249141693115,941.89453125,748.046875,-1000.0,-809.5703125,-437.01171875
4.9845311641693115,967.7734375,-937.98828125,-205.078125,358.88671875,-1000.0
4.9884374141693115,-386.71875,-323.73046875,629.39453125,-1000.0,-821.2890625
4.9923436641693115,-1000.0,-1000.0,12.6953125,-894.53125,589.35546875
4.9962499141693115,-632.32421875,-792.96875,-882.32421875,535.64453125,-893.5546875
5.0001561641693115,766.6015625,582.51953125,-1000.0,-829.58984375,-307.12890625
5.0040624141693115,-906.73828125,-847.16796875,-371.09375,625.48828125,-1000.0
5.0079686641693115,-162.109375,-22.4609375,569.82421875,-863.76953125,-834.9609375
5.011999845504761,-1000.0,-1000.0,103.02734375,-846.19140625,550.78125
5.015906095504761,-777.83203125,-852.5390625,-887.20703125,599.609375,-852.05078125
5.019812345504761,599.12109375,519.04296875,-1000.0,-876.46484375,-147.4609375
5.023718595504761,-831.54296875,-817.87109375,-401.85546875,762.20703125,-1000.0
5.027624845504761,183.10546875,333.49609375,541.015625,-686.03515625,-881.34765625
5.031531095504761,-1000.0,-1000.0,225.09765625,-889.16015625,443.84765625
5.035437345504761,-869.140625,-895.01953125,-786.1328125,475.09765625,-801.26953125
5.039343595504761,520.01953125,537.109375,-1000.0,-897.94921875,242.67578125
5.043249845504761,-817.3828125,-834.9609375,-590.8203125,829.58984375,-996.58203125
5.047156095504761,548.33984375,603.515625,429.19921875,-576.171875,-1000.0
5.051062345504761,-929.19921875,-842.7734375,442.3828125,-1000.0,292.96875
5.054968595504761,-927.24609375,-1000.0,-660.64453125,205.078125,-796.38671875
5.054999828338623,554.19921875,466.30859375,-1000.0,-856.4453125,448.73046875
5.058906078338623,-854.00390625,-854.00390625,-662.59765625,799.31640625,-866.2109375
5.062812328338623,700.68359375,746.58203125,395.99609375,-542.96875,-1000.0
5.066718578338623,-776.85546875,-674.31640625,550.29296875,-1000.0,20.01953125
5.070624828338623,-1000.0,-1000.0,-607.421875,-187.98828125,-878.41796875
5.074531078338623,488.28125,306.640625,-1000.0,-969.7265625,715.8203125
5.078437328338623,-875.48828125,-857.421875,-689.453125,889.6484375,-640.13671875
5.082343578338623,820.80078125,798.33984375,390.13671875,-462.40234375,-1000.0
5.086249828338623,-586.42578125,-569.3359375,613.76953125,-1000.0,-387.6953125
5.090156078338623,-1000.0,-1000.0,-478.515625,-557.6171875,974.609375
5.094062328338623,321.2890625,29.78515625,-1000.0,845.21484375,847.16796875
5.097968578338623,-865.234375,-900.87890625,-829.1015625,-958.0078125,-576.66015625
5.10099983215332,825.68359375,827.63671875,74.70703125,-308.59375,-1000.0
5.10490608215332,-526.85546875,-522.4609375,642.08984375,-1000.0,-664.0625
5.10881233215332,-1000.0,-1000.0,-226.07421875,-702.1484375,830.56640625
5.11271858215332,51.7578125,-357.91015625,-980.46875,682.12890625,889.16015625
5.11662483215332,-887.6953125,969.7265625,-912.59765625,-858.3984375,-604.4921875
5.12053108215332,813.96484375,905.76171875,20.99609375,-28.80859375,-1000.0
5.12443733215332,-540.0390625,-486.81640625,695.80078125,-1000.0,-677.24609375
5.12834358215332,-1000.0,-1000.0,-101.07421875,-836.9140625,812.98828125
5.13224983215332,-303.7109375,-617.67578125,-950.1953125,526.3671875,932.12890625
5.13615608215332,971.19140625,803.22265625,-971.6796875,-812.01171875,-578.61328125
5.14006233215332,950.1953125,-963.37890625,-86.42578125,337.40234375,-1000.0
5.14396858215332,-382.8125,-336.9140625,625.9765625,-1000.0,-833.49609375
5.145999908447266,-1000.0,-1000.0,-77.1484375,-891.6015625,589.35546875
5.149906158447266,-591.796875,-753.90625,-911.1328125,533.69140625,-925.29296875
5.153812408447266,809.5703125,644.53125,-1000.0,-830.078125,-394.53125
5.157718658447266,-927.24609375,-869.140625,-352.5390625,606.4453125,-1000.0
5.161624908447266,-243.65234375,-124.0234375,559.5703125,-885.25390625,-846.19140625
5.165531158447266,-1000.0,-1000.0,161.1328125,-939.94140625,540.0390625
5.169437408447266,-719.23828125,-839.35546875,-837.40234375,561.5234375,-860.83984375
5.173343658447266,654.78515625,525.87890625,-1000.0,-862.79296875,-212.40234375
5.177249908447266,-845.21484375,-819.3359375,-393.5546875,736.81640625,-1000.0
5.181156158447266,85.9375,206.54296875,575.1953125,-729.98046875,-884.27734375
5.185062408447266,-1000.0,-1000.0,265.625,-1000.0,454.58984375
5.188968658447266,-857.91015625,-875.9765625,-802.734375,461.9140625,-816.89453125
5.204999923706055,516.6015625,527.34375,-1000.0,-871.58203125,63.4765625
5.208906173706055,-814.94140625,-825.1953125,-464.35546875,819.82421875,-1000.0
5.212812423706055,453.61328125,527.83203125,551.26953125,-583.984375,-962.890625
5.216718673706055,-968.75,-904.78515625,402.34375,-1000.0,322.265625
5.220624923706055,-911.1328125,-960.44921875,-714.35546875,299.31640625,-800.29296875
5.224531173706055,543.9453125,501.953125,-1000.0,-856.4453125,549.8046875
5.228437423706055,-842.7734375,-847.16796875,-615.234375,805.17578125,-824.21875
5.232343673706055,656.73828125,703.61328125,395.5078125,-554.6875,-1000.0
5.236249923706055,-842.28515625,-734.375,503.41796875,-1000.0,112.3046875
5.240156173706055,-952.1484375,-1000.0,-597.16796875,3.90625,-851.5625
5.244062423706055,568.359375,363.28125,-1000.0,-896.484375,670.41015625
5.247968673706055,-873.53515625,-856.4453125,-741.2109375,813.4765625,-706.54296875
5.25,775.87890625,789.0625,295.41015625,-544.43359375,-1000.0
5.25390625,-666.50390625,-592.28515625,613.28125,-1000.0,-199.70703125
5.2578125,-1000.0,-1000.0,-563.96484375,-375.9765625,-964.35546875
5.26171875,399.90234375,124.51171875,-1000.0,943.84765625,761.71875
5.265625,-866.69921875,-876.953125,-761.23046875,967.7734375,-609.375
5.26953125,818.84765625,814.453125,207.03125,-386.23046875,-1000.0
5.2734375,-561.5234375,-549.8046875,660.64453125,-1000.0,-545.8984375
5.27734375,-1000.0,-1000.0,-321.2890625,-634.765625,904.296875
5.28125,205.078125,-147.4609375,-1000.0,769.53125,885.7421875
5.28515625,-856.93359375,-947.265625,-816.89453125,-905.2734375,-585.44921875
5.2890625,798.828125,851.5625,41.50390625,-220.21484375,-1000.0
5.29296875,-542.96875,-509.765625,633.30078125,-1000.0,-730.46875
5.310999870300293,-1000.0,-1000.0,-139.6484375,-767.578125,766.6015625
5.314906120300293,-188.4765625,-564.453125,-935.05859375,593.75,930.6640625
5.318812370300293,-970.703125,853.515625,-984.375,-826.171875,-597.65625
5.322718620300293,889.16015625,994.62890625,-195.3125,165.52734375,-1000.0
5.326624870300293,-462.40234375,-409.1796875,632.32421875,-1000.0,-797.8515625
5.330531120300293,-1000.0,-1000.0,-47.36328125,-865.234375,645.99609375
5.334437370300293,-558.10546875,-718.26171875,-920.8984375,519.04296875,-964.35546875
5.338343620300293,845.21484375,688.4765625,-1000.0,-816.89453125,-451.66015625
5.342249870300293,-958.49609375,-892.08984375,-207.03125,548.828125,-1000.0
5.346156120300293,-308.59375,-196.77734375,627.44140625,-929.19921875,-848.14453125
5.350062370300293,-1000.0,-1000.0,-9.27734375,-927.24609375,543.45703125
5.353968620300293,-702.63671875,-823.73046875,-900.87890625,554.6875,-871.09375
5.3399999141693115,681.640625,544.43359375,-1000.0,-853.515625,-254.39453125
5.3439061641693115,-858.88671875,-827.1484375,-428.22265625,701.66015625,-1000.0
5.3478124141693115,-30.2734375,109.86328125,516.11328125,-776.3671875,-854.98046875
5.3517186641693115,-1000.0,-1000.0,259.765625,-1000.0,498.046875
5.3556249141693115,-845.703125,-864.2578125,-780.2734375,488.76953125,-821.77734375
5.3595311641693115,512.20703125,521.97265625,-1000.0,-874.51171875,39.55078125
5.3634374141693115,-810.05859375,-818.359375,-479.00390625,819.82421875,-1000.0
5.3673436641693115,358.88671875,448.73046875,523.4375,-583.49609375,-951.171875
5.3712499141693115,-1000.0,-955.56640625,394.53125,-1000.0,368.1640625
5.3751561641693115,-894.53125,-929.6875,-728.02734375,304.6875,-795.8984375
5.3790624141693115,535.64453125,519.53125,-1000.0,-856.93359375,291.50390625
5.3829686641693115,-835.44921875,-840.33203125,-543.45703125,804.6875,-958.49609375
5.385999917984009,631.34765625,665.0390625,509.765625,-554.19921875,-1000.0
5.389906167984009,-865.72265625,-782.2265625,468.75,-1000.0,172.8515625
5.393812417984009,-945.80078125,-1000.0,-685.05859375,4.39453125,-817.87109375
5.397718667984009,565.4296875,397.4609375,-1000.0,-896.484375,585.9375
5.401624917984009,-870.1171875,-854.4921875,-679.6875,813.4765625,-781.25
5.405531167984009,765.13671875,772.94921875,355.46875,-544.43359375,-1000.0
5.409437417984009,-684.08203125,-623.53515625,577.1484375,-1000.0,-64.94140625
5.413343667984009,-1000.0,-1000.0,-515.13671875,-376.953125,-911.62109375
5.417249917984009,410.15625,192.3828125,-1000.0,945.80078125,722.16796875
5.421156167984009,-866.2109375,-867.67578125,-775.87890625,962.890625,-648.92578125
5.425062417984009,814.453125,804.6875,213.37890625,-395.99609375,-1000.0
5.428968667984009,-573.2421875,-546.875,678.22265625,-1000.0,-250.0
5.430999994277954,-1000.0,-1000.0,-353.02734375,-633.30078125,-978.02734375
5.434906244277954,221.19140625,-176.26953125,-1000.0,775.87890625,797.8515625
5.438812494277954,-857.421875,-952.63671875,-834.9609375,-910.15625,-584.9609375
5.442718744277954,800.29296875,841.30859375,45.41015625,-252.9296875,-1000.0
5.446624994277954,-546.38671875,-542.96875,629.8828125,-1000.0,-694.82421875
5.450531244277954,-1000.0,-1000.0,-207.51953125,-662.59765625,790.0390625
5.454437494277954,-145.5078125,-523.4375,-962.40234375,644.04296875,954.1015625
5.458343744277954,-947.265625,889.6484375,-908.69140625,-852.05078125,-545.41015625
5.462249994277954,854.4921875,953.61328125,-83.984375,80.56640625,-1000.0
5.466156244277954,-509.765625,-470.21484375,633.30078125,-1000.0,-783.203125
5.470062494277954,-1000.0,-1000.0,-55.17578125,-857.421875,686.03515625
5.473968744277954,-503.90625,-695.80078125,-907.71484375,517.578125,993.1640625
5.474999904632568,881.34765625,726.5625,-1000.0,-812.5,-523.4375
5.478906154632568,-995.60546875,-922.8515625,-306.15234375,422.36328125,-1000.0
5.482812404632568,-365.72265625,-295.41015625,564.94140625,-984.86328125,-838.8671875
5.486718654632568,-1000.0,-1000.0,-0.48828125,-905.76171875,557.12890625
5.490624904632568,-679.6875,-808.59375,-913.0859375,541.9921875,-882.32421875
5.494531154632568,726.5625,566.89453125,-1000.0,-838.37890625,-283.203125
5.498437404632568,-892.08984375,-841.30859375,-281.73828125,640.625,-1000.0
5.502343654632568,-202.1484375,-24.4140625,602.05078125,-844.7265625,-851.5625
5.506249904632568,-1000.0,-1000.0,117.1875,-977.05078125,510.7421875
5.510156154632568,-794.43359375,-851.07421875,-849.609375,522.4609375,-830.56640625
5.514062404632568,564.453125,517.578125,-1000.0,-862.79296875,-28.80859375
5.517968654632568,-821.77734375,-814.94140625,-506.34765625,761.71875,-1000.0
5.519999980926514,164.0625,328.61328125,468.75,-676.26953125,-918.9453125
5.523906230926514,-1000.0,-1000.0,340.33203125,-1000.0,414.55078125
5.527812480926514,-865.234375,-899.90234375,-732.91015625,363.28125,-803.7109375
5.531718730926514,518.5546875,524.4140625,-1000.0,-862.3046875,247.55859375
5.535624980926514,-817.3828125,-830.56640625,-585.9375,812.5,-1000.0
5.539531230926514,548.33984375,599.609375,468.26171875,-567.87109375,-958.0078125
5.543437480926514,-929.19921875,-843.26171875,523.92578125,-1000.0,399.90234375
5.547343730926514,-927.24609375,-1000.0,-668.45703125,160.15625,-813.4765625
5.551249980926514,554.19921875,431.15234375,-1000.0,-865.72265625,575.68359375
5.555156230926514,-854.00390625,-850.5859375,-605.46875,804.6875,-784.66796875
5.559062480926514,700.68359375,747.55859375,392.08984375,-545.8984375,-1000.0
5.562968730926514,-776.85546875,-665.52734375,375.48828125,-1000.0,104.4921875
5.580999851226807,-1000.0,-1000.0,-634.765625,-187.98828125,-860.3515625
5.584906101226807,488.28125,268.06640625,-1000.0,-969.7265625,767.08984375
5.588812351226807,-875.0,-857.421875,-729.4921875,889.6484375,-570.80078125
5.592718601226807,819.3359375,798.828125,216.30859375,-462.40234375,-1000.0
5.596624851226807,-583.984375,-561.03515625,602.05078125,-1000.0,-436.03515625
5.600531101226807,-1000.0,-1000.0,-348.6328125,-557.6171875,956.0546875
5.604437351226807,305.6640625,-42.96875,-1000.0,845.703125,836.9140625
5.608343601226807,-860.3515625,-916.50390625,-859.86328125,-957.51953125,-600.09765625
5.612249851226807,812.01171875,831.54296875,64.94140625,-308.59375,-1000.0
5.616156101226807,-539.0625,-528.3203125,694.82421875,-1000.0,-530.2734375
5.620062351226807,-1000.0,-1000.0,-236.328125,-702.1484375,912.59765625
5.623968601226807,5.37109375,-416.9921875,-1000.0,682.6171875,876.46484375
5.627999782562256,-900.390625,938.96484375,-896.484375,-858.3984375,-593.26171875
5.631906032562256,820.80078125,934.08203125,-41.015625,-30.2734375,-1000.0
5.635812282562256,-522.4609375,-454.1015625,636.71875,-1000.0,-748.046875
5.639718532562256,-1000.0,-1000.0,-100.09765625,-845.703125,725.5859375
5.643624782562256,-376.953125,-645.99609375,-931.15234375,512.6953125,982.91015625
5.647531032562256,943.359375,772.4609375,-982.421875,-809.08203125,-527.34375
5.651437282562256,968.26171875,-937.98828125,-202.63671875,358.88671875,-1000.0
5.655343532562256,-373.53515625,-274.4140625,602.5390625,-1000.0,-837.40234375
5.659249782562256,-1000.0,-1000.0,15.13671875,-894.53125,574.21875
5.663156032562256,-636.71875,-780.76171875,-877.44140625,536.1328125,-903.80859375
5.667062282562256,769.53125,609.375,-1000.0,-834.9609375,-349.12109375
5.670968532562256,-906.25,-853.515625,-376.46484375,631.8359375,-1000.0
5.671000003814697,-220.21484375,-29.78515625,558.10546875,-865.72265625,-850.09765625
5.674906253814697,-1000.0,-1000.0,91.796875,-945.80078125,537.59765625
5.678812503814697,-767.578125,-853.02734375,-889.16015625,565.91796875,-861.328125
5.682718753814697,593.75,520.5078125,-1000.0,-869.62890625,-202.63671875
5.686625003814697,-828.125,-818.359375,-397.94921875,764.16015625,-1000.0
5.690531253814697,174.8046875,304.19921875,562.98828125,-681.640625,-869.62890625
5.694437503814697,-1000.0,-1000.0,356.4453125,-1000.0,436.03515625
5.698343753814697,-867.1875,-890.13671875,-750.9765625,399.4140625,-800.29296875
5.702250003814697,520.5078125,534.66796875,-1000.0,-864.2578125,364.2578125
5.706156253814697,-821.2890625,-833.984375,-557.6171875,813.96484375,-948.73046875
5.710062503814697,562.98828125,594.7265625,432.6171875,-570.80078125,-1000.0
5.713968753814697,-913.0859375,-852.5390625,439.94140625,-1000.0,311.03515625
5.7149999141693115,-930.6640625,-989.2578125,-691.89453125,205.56640625,-798.33984375
5.7189061641693115,554.6875,482.421875,-1000.0,-856.93359375,435.546875
5.7228124141693115,-854.4921875,-852.5390625,-648.92578125,801.7578125,-882.32421875
5.7267186641693115,704.1015625,734.86328125,393.06640625,-546.38671875,-1000.0
5.7306249141693115,-784.66796875,-692.87109375,535.15625,-1000.0,69.3359375
5.7345311641693115,-997.0703125,-1000.0,-617.1875,-148.4375,-868.1640625
5.7384374141693115,525.390625,329.1015625,-1000.0,-958.984375,607.421875
5.7423436641693115,-880.859375,-857.421875,-680.6640625,886.71875,-689.453125
5.7462499141693115,822.75390625,795.8984375,415.0390625,-461.9140625,-1000.0
5.7501561641693115,-594.23828125,-575.1953125,626.953125,-1000.0,-365.234375
5.7540624141693115,-1000.0,-1000.0,-564.453125,-500.48828125,988.76953125
5.7579686641693115,360.3515625,57.6171875,-1000.0,875.0,848.6328125
5.760999917984009,-864.74609375,-892.08984375,-811.03515625,-976.07421875,-573.2421875
5.764906167984009,821.77734375,817.87109375,76.66015625,-321.77734375,-1000.0
5.768812417984009,-551.7578125,-537.109375,625.48828125,-1000.0,-638.671875
5.772718667984009,-1000.0,-1000.0,-257.8125,-673.828125,847.16796875
5.776624917984009,153.80859375,-321.2890625,-979.00390625,717.28515625,879.8828125
5.780531167984009,-869.62890625,985.3515625,-900.390625,-875.0,-608.88671875
5.784437417984009,810.05859375,895.5078125,26.3671875,-86.9140625,-1000.0
5.788343667984009,-532.2265625,-493.1640625,673.33984375,-1000.0,-757.32421875
5.792249917984009,-1000.0,-1000.0,-205.56640625,-801.7578125,731.4453125
5.796156167984009,-198.73046875,-600.5859375,-975.5859375,566.40625,958.0078125
5.800062417984009,-993.1640625,817.87109375,-946.77734375,-819.82421875,-571.2890625
5.803968667984009,931.15234375,-973.14453125,-64.94140625,279.296875,-1000.0
5.805999994277954,-356.93359375,-346.19140625,638.671875,-1000.0,-834.9609375
5.809906244277954,-1000.0,-1000.0,-114.74609375,-882.8125,604.4921875
5.813812494277954,-559.5703125,-738.76953125,-920.41015625,528.3203125,-955.56640625
5.817718744277954,840.8203125,662.109375,-1000.0,-823.2421875,-453.125
5.821624994277954,-940.4296875,-874.0234375,-346.6796875,573.2421875,-1000.0
5.825531244277954,-243.1640625,-128.90625,574.70703125,-910.64453125,-847.65625
5.829437494277954,-1000.0,-1000.0,131.8359375,-932.6171875,542.48046875
5.833343744277954,-702.1484375,-836.9140625,-850.5859375,557.12890625,-871.09375
5.837249994277954,678.22265625,531.25,-1000.0,-851.5625,-244.62890625
5.841156244277954,-852.05078125,-821.2890625,-399.4140625,708.0078125,-1000.0
5.845062494277954,62.01171875,190.4296875,560.546875,-760.7421875,-855.46875
5.848968744277954,-1000.0,-1000.0,190.91796875,-923.828125,506.34765625
5.851999998092651,-856.4453125,-874.51171875,-832.03125,523.4375,-828.125
5.855906248092651,517.08984375,526.3671875,-1000.0,-890.625,7.32421875
5.859812498092651,-812.5,-823.73046875,-476.07421875,827.63671875,-1000.0
5.863718748092651,407.71484375,511.71875,500.48828125,-586.42578125,-946.77734375
5.867624998092651,-990.72265625,-916.9921875,370.60546875,-1000.0,335.9375
5.871531248092651,-903.3203125,-951.171875,-724.12109375,304.6875,-807.12890625
5.875437498092651,539.55078125,511.23046875,-1000.0,-856.4453125,590.8203125
5.879343748092651,-837.890625,-846.6796875,-603.515625,804.6875,-792.96875
5.883249998092651,638.18359375,696.2890625,384.765625,-554.19921875,-1000.0
5.887156248092651,-859.375,-743.65234375,484.375,-1000.0,144.04296875
5.891062498092651,-947.75390625,-1000.0,-652.83203125,3.90625,-840.8203125
5.894968748092651,565.4296875,372.55859375,-1000.0,-896.97265625,559.5703125
5.896999835968018,-870.1171875,-856.4453125,-716.30859375,813.4765625,-768.5546875
5.900906085968018,764.16015625,786.1328125,300.29296875,-544.43359375,-1000.0
5.904812335968018,-681.640625,-599.12109375,576.66015625,-1000.0,-172.36328125
5.908718585968018,-1000.0,-1000.0,-569.3359375,-375.9765625,-941.40625
5.912624835968018,398.92578125,145.5078125,-1000.0,943.84765625,751.46484375
5.916531085968018,-864.74609375,-873.046875,-729.98046875,967.7734375,-606.93359375
5.920437335968018,813.4765625,806.640625,340.33203125,-386.23046875,-1000.0
5.924343585968018,-570.80078125,-545.41015625,635.25390625,-1000.0,-580.078125
5.928249835968018,-1000.0,-1000.0,-446.2890625,-634.765625,885.7421875
5.932156085968018,205.078125,-226.5625,-1000.0,769.53125,896.484375
5.936062335968018,-856.93359375,-972.65625,-874.51171875,-905.2734375,-585.44921875
5.939968585968018,798.828125,860.3515625,-23.4375,-220.21484375,-1000.0
5.954999923706055,-542.96875,-524.4140625,629.8828125,-1000.0,-718.75
5.958906173706055,-1000.0,-1000.0,-162.109375,-772.94921875,777.83203125
5.962812423706055,-182.12890625,-547.36328125,-944.3359375,600.09765625,926.7578125
5.966718673706055,-972.16796875,859.375,-976.07421875,-828.125,-594.7265625
5.970624923706055,789.55078125,888.18359375,-101.5625,65.91796875,-1000.0
5.974531173706055,-496.58203125,-450.1953125,681.15234375,-1000.0,-741.69921875
5.978437423706055,-1000.0,-1000.0,-40.0390625,-849.12109375,724.609375
5.982343673706055,-565.91796875,-719.7265625,-919.43359375,511.23046875,992.1875
5.986249923706055,847.65625,700.1953125,-1000.0,-813.96484375,-503.90625
5.990156173706055,-958.49609375,-896.97265625,-194.82421875,548.828125,-1000.0
5.994062423706055,-308.59375,-208.49609375,618.1640625,-929.19921875,-847.65625
5.997968673706055,-1000.0,-1000.0,-29.78515625,-927.24609375,545.41015625
6.0,-702.63671875,-820.3125,-903.80859375,554.6875,-877.44140625
