Timestamp,TP9,AF7,AF8,TP10,Right AUX
0.0,304.6875,-45.8984375,-1000.0,801.26953125,807.12890625
0.00390625,-857.421875,-915.52734375,-834.9609375,-944.82421875,-604.00390625
0.0078125,804.19921875,827.63671875,92.28515625,-313.96484375,-1000.0
0.01171875,-554.6875,-537.109375,665.52734375,-1000.0,-612.3046875
0.015625,-1000.0,-1000.0,-223.14453125,-720.21484375,865.234375
0.01953125,3.90625,-411.62109375,-989.2578125,662.59765625,902.83203125
0.0234375,-897.4609375,948.2421875,-843.75,-854.4921875,-590.33203125
0.02734375,812.98828125,916.50390625,85.9375,-31.25,-1000.0
0.03125,-544.43359375,-487.79296875,637.20703125,-1000.0,-756.8359375
0.03515625,-1000.0,-1000.0,-153.3203125,-845.21484375,731.4453125
0.0390625,-375.0,-639.16015625,-932.6171875,512.20703125,953.125
0.04296875,946.77734375,789.0625,-996.58203125,-809.08203125,-577.63671875
0.05799984931945801,965.33203125,-953.61328125,-246.09375,359.375,-1000.0
0.06190609931945801,-406.25,-345.21484375,611.328125,-1000.0,-814.453125
0.06581234931945801,-1000.0,-1000.0,13.671875,-895.01953125,605.95703125
0.06971859931945801,-508.30078125,-659.66796875,-901.85546875,535.64453125,966.30859375
0.07362484931945801,831.0546875,670.41015625,-1000.0,-833.0078125,-435.546875
0.07753109931945801,-941.40625,-883.30078125,-308.10546875,618.1640625,-1000.0
0.08143734931945801,-243.1640625,-105.46875,616.2109375,-875.9765625,-854.00390625
0.08534359931945801,-1000.0,-1000.0,112.3046875,-942.87109375,541.015625
0.08924984931945801,-715.33203125,-840.8203125,-875.0,561.5234375,-858.3984375
0.09315609931945801,669.921875,529.78515625,-1000.0,-858.3984375,-199.70703125
0.09706234931945801,-853.515625,-821.77734375,-435.05859375,720.21484375,-1000.0
0.10096859931945801,3.90625,189.94140625,510.7421875,-729.98046875,-860.3515625
0.10399985313415527,-1000.0,-1000.0,229.4921875,-1000.0,473.14453125
0.10790610313415527,-850.5859375,-875.48828125,-807.6171875,396.97265625,-807.12890625
0.11181235313415527,514.6484375,527.34375,-1000.0,-865.234375,201.66015625
0.11571860313415527,-810.546875,-823.2421875,-546.38671875,816.40625,-1000.0
0.11962485313415527,358.3984375,491.2109375,465.33203125,-575.68359375,-951.66015625
0.12353110313415527,-1000.0,-927.734375,432.12890625,-1000.0,412.59765625
0.12743735313415527,-894.53125,-944.82421875,-696.77734375,235.83984375,-804.6875
0.13134360313415527,535.64453125,512.6953125,-1000.0,-857.421875,359.86328125
0.13524985313415527,-835.9375,-843.26171875,-594.23828125,805.6640625,-959.9609375
0.13915610313415527,631.34765625,680.6640625,471.6796875,-553.22265625,-1000.0
0.14306235313415527,-865.72265625,-761.71875,535.15625,-1000.0,347.16796875
0.14696860313415527,-945.80078125,-1000.0,-657.2265625,-50.29296875,-815.4296875
0.14800000190734863,565.4296875,383.7890625,-1000.0,-911.62109375,585.9375
0.15190625190734863,-870.1171875,-854.4921875,-702.63671875,820.80078125,-754.39453125
0.15581250190734863,764.16015625,777.83203125,286.62109375,-548.33984375,-1000.0
0.15971875190734863,-682.12890625,-620.60546875,543.45703125,-1000.0,-79.58984375
0.16362500190734863,-1000.0,-1000.0,-548.828125,-376.46484375,-920.41015625
0.16753125190734863,399.90234375,214.35546875,-1000.0,943.359375,680.6640625
0.17143750190734863,-860.83984375,-858.88671875,-751.46484375,973.14453125,-629.39453125
0.17534375190734863,810.05859375,801.7578125,187.5,-392.578125,-1000.0
0.17925000190734863,-575.68359375,-546.875,644.04296875,-1000.0,-455.56640625
0.18315625190734863,-1000.0,-1000.0,-230.95703125,-536.62109375,952.1484375
0.18706250190734863,278.80859375,-149.4140625,-971.19140625,806.15234375,839.35546875
0.19096875190734863,-874.51171875,-949.21875,-891.6015625,-927.734375,-592.28515625
0.1940000057220459,814.453125,847.16796875,62.98828125,-229.98046875,-1000.0
0.1979062557220459,-558.10546875,-529.78515625,663.57421875,-1000.0,-680.17578125
0.2018125057220459,-1000.0,-1000.0,-229.4921875,-773.4375,817.87109375
0.2057187557220459,-20.5078125,-484.375,-977.05078125,603.02734375,914.55078125
0.2096250057220459,-909.1796875,905.2734375,-922.36328125,-835.44921875,-596.6796875
0.2135312557220459,831.0546875,951.66015625,-66.89453125,47.36328125,-1000.0
0.2174375057220459,-523.92578125,-450.68359375,651.85546875,-1000.0,-742.67578125
0.2213437557220459,-1000.0,-1000.0,-103.515625,-856.93359375,724.609375
0.2252500057220459,-376.46484375,-665.52734375,-922.36328125,518.5546875,994.62890625
0.2291562557220459,943.359375,754.39453125,-996.09375,-810.546875,-504.39453125
0.2330625057220459,966.796875,-931.15234375,-263.18359375,358.88671875,-1000.0
0.2369687557220459,-386.71875,-272.4609375,603.515625,-1000.0,-829.58984375
0.23799991607666016,-1000.0,-1000.0,83.49609375,-894.53125,597.16796875
0.24190616607666016,-634.765625,-791.015625,-870.1171875,536.1328125,-927.734375
0.24581241607666016,768.5546875,599.609375,-1000.0,-834.47265625,-392.578125
0.24971866607666016,-905.76171875,-852.5390625,-352.5390625,630.859375,-1000.0
0.25362491607666016,-220.21484375,-53.22265625,605.95703125,-863.28125,-843.26171875
0.25753116607666016,-1000.0,-1000.0,187.98828125,-953.61328125,533.203125
0.26143741607666016,-767.578125,-850.09765625,-848.14453125,553.7109375,-849.12109375
0.26534366607666016,593.75,518.5546875,-1000.0,-868.1640625,-153.3203125
0.26924991607666016,-826.66015625,-817.3828125,-341.30859375,764.6484375,-1000.0
0.27315616607666016,165.0390625,288.0859375,556.640625,-682.12890625,-892.578125
0.27706241607666016,-1000.0,-1000.0,256.8359375,-1000.0,451.66015625
0.28096866607666016,-866.2109375,-887.6953125,-773.4375,399.4140625,-816.40625
0.2849998474121094,519.53125,533.203125,-1000.0,-864.2578125,84.9609375
0.2889060974121094,-816.89453125,-829.58984375,-577.1484375,813.96484375,-1000.0
0.2928123474121094,521.484375,569.3359375,446.2890625,-570.80078125,-953.61328125
0.2967185974121094,-940.91796875,-874.51171875,465.8203125,-1000.0,356.93359375
0.3006248474121094,-922.8515625,-980.46875,-687.5,205.078125,-797.36328125
0.3045310974121094,550.29296875,485.83984375,-1000.0,-856.93359375,459.47265625
0.3084373474121094,-848.14453125,-849.12109375,-611.81640625,799.31640625,-876.46484375
0.3123435974121094,674.31640625,715.8203125,419.921875,-542.96875,-1000.0
0.3162498474121094,-826.171875,-717.7734375,492.1875,-1000.0,135.7421875
0.3201560974121094,-956.0546875,-1000.0,-650.390625,-192.87109375,-842.28515625
0.3240623474121094,568.84765625,350.09765625,-1000.0,-957.03125,666.9921875
0.3279685974121094,-872.55859375,-856.4453125,-626.953125,851.07421875,-700.68359375
0.3280000686645508,771.484375,789.55078125,367.67578125,-522.94921875,-1000.0
0.3319063186645508,-671.875,-592.28515625,548.828125,-1000.0,-231.93359375
0.3358125686645508,-1000.0,-1000.0,-555.6640625,-565.4296875,-963.8671875
0.3397188186645508,398.92578125,117.1875,-1000.0,861.328125,804.19921875
0.3436250686645508,-864.74609375,-878.90625,-760.7421875,-999.0234375,-598.6328125
0.3475313186645508,812.98828125,810.546875,167.48046875,-403.3203125,-1000.0
0.3514375686645508,-571.2890625,-545.41015625,661.1328125,-1000.0,-499.51171875
0.3553438186645508,-1000.0,-1000.0,-152.34375,-678.7109375,926.7578125
0.3592500686645508,205.078125,-235.83984375,-944.3359375,728.515625,847.65625
0.3631563186645508,-857.421875,-977.5390625,-924.31640625,-895.01953125,-599.609375
0.3670625686645508,798.33984375,867.1875,0.0,-224.12109375,-1000.0
0.3709688186645508,-542.96875,-515.625,641.11328125,-1000.0,-707.51953125
0.37599992752075195,-1000.0,-1000.0,-197.75390625,-778.80859375,790.52734375
0.37990617752075195,-188.4765625,-548.828125,-962.890625,579.58984375,926.26953125
0.38381242752075195,-970.21484375,865.234375,-946.2890625,-823.2421875,-594.7265625
0.38771867752075195,890.13671875,983.88671875,-158.203125,165.0390625,-1000.0
0.39162492752075195,-463.37890625,-416.9921875,614.2578125,-1000.0,-786.62109375
0.39553117752075195,-1000.0,-1000.0,-26.85546875,-865.234375,646.97265625
0.39943742752075195,-539.55078125,-702.1484375,-901.3671875,519.04296875,-939.94140625
0.40334367752075195,857.421875,710.44921875,-1000.0,-816.89453125,-399.90234375
0.40724992752075195,-970.21484375,-905.76171875,-282.2265625,548.828125,-1000.0
0.41115617752075195,-324.70703125,-220.21484375,581.54296875,-929.19921875,-838.8671875
0.41506242752075195,-1000.0,-1000.0,122.55859375,-927.734375,578.61328125
0.41896867752075195,-671.38671875,-812.5,-854.00390625,553.22265625,-900.87890625
0.4179999828338623,724.12109375,566.40625,-1000.0,-843.75,-339.35546875
0.4219062328338623,-881.8359375,-837.890625,-375.9765625,673.828125,-1000.0
0.4258124828338623,-117.67578125,46.38671875,578.61328125,-794.43359375,-843.75
0.4297187328338623,-1000.0,-1000.0,167.96875,-915.52734375,517.578125
0.4336249828338623,-788.0859375,-860.3515625,-850.09765625,516.6015625,-833.49609375
0.4375312328338623,588.8671875,522.4609375,-1000.0,-877.44140625,-56.640625
0.4414374828338623,-826.171875,-819.82421875,-357.91015625,781.73828125,-1000.0
0.4453437328338623,185.546875,368.65234375,547.36328125,-646.484375,-912.59765625
0.4492499828338623,-1000.0,-990.234375,276.85546875,-1000.0,427.734375
0.4531562328338623,-868.65234375,-904.296875,-761.71875,303.22265625,-805.17578125
0.4570624828338623,520.01953125,534.66796875,-1000.0,-858.88671875,173.828125
0.4609687328338623,-817.87109375,-836.9140625,-581.0546875,810.05859375,-1000.0
0.4789998531341553,548.33984375,615.72265625,425.29296875,-562.5,-981.4453125
0.4829061031341553,-929.19921875,-830.078125,480.46875,-1000.0,329.58984375
0.4868123531341553,-927.24609375,-1000.0,-627.44140625,85.44921875,-798.828125
0.4907186031341553,554.19921875,456.0546875,-1000.0,-880.859375,474.12109375
0.4946248531341553,-854.00390625,-851.07421875,-670.8984375,812.5,-864.2578125
0.4985311031341553,700.68359375,740.72265625,402.83203125,-549.31640625,-1000.0
0.5024373531341553,-776.85546875,-678.7109375,558.59375,-1000.0,111.81640625
0.5063436031341553,-1000.0,-1000.0,-612.79296875,-219.23828125,-854.4921875
0.5102498531341553,488.28125,295.8984375,-1000.0,-980.46875,652.34375
0.5141561031341553,-875.48828125,-856.4453125,-671.38671875,894.53125,-683.59375
0.5180623531341553,819.82421875,795.8984375,304.6875,-464.84375,-1000.0
0.5219686031341553,-585.9375,-570.80078125,582.51953125,-1000.0,-339.35546875
0.5230000019073486,-1000.0,-1000.0,-459.47265625,-558.10546875,-999.51171875
0.5269062519073486,315.91796875,14.16015625,-1000.0,845.703125,834.9609375
0.5308125019073486,-859.375,-901.3671875,-836.9140625,-957.51953125,-595.21484375
0.5347187519073486,810.05859375,822.265625,85.9375,-308.59375,-1000.0
0.5386250019073486,-563.96484375,-539.55078125,679.19921875,-1000.0,-524.4140625
0.5425312519073486,-1000.0,-1000.0,-195.80078125,-706.0546875,911.1328125
0.5464375019073486,102.05078125,-338.37890625,-957.03125,687.98828125,879.39453125
0.5503437519073486,-878.41796875,979.4921875,-931.15234375,-865.72265625,-583.0078125
0.5542500019073486,811.5234375,895.99609375,-49.8046875,-83.49609375,-1000.0
0.5581562519073486,-550.29296875,-497.55859375,685.546875,-1000.0,-647.4609375
0.5620625019073486,-1000.0,-1000.0,-152.83203125,-846.6796875,835.44921875
0.5659687519073486,-187.5,-596.19140625,-958.49609375,518.5546875,920.41015625
0.5709998607635498,-972.65625,823.2421875,-968.26171875,-812.98828125,-581.54296875
0.5749061107635498,894.53125,-980.46875,-221.6796875,209.9609375,-1000.0
0.5788123607635498,-452.63671875,-354.98046875,601.07421875,-1000.0,-806.640625
0.5827186107635498,-1000.0,-1000.0,-35.64453125,-872.55859375,633.7890625
0.5866248607635498,-558.10546875,-730.95703125,-914.0625,522.4609375,-953.61328125
0.5905311107635498,845.703125,676.26953125,-1000.0,-817.87109375,-437.5
0.5944373607635498,-958.49609375,-884.27734375,-270.5078125,548.828125,-1000.0
0.5983436107635498,-308.59375,-150.87890625,585.9375,-929.19921875,-848.6328125
0.6022498607635498,-1000.0,-1000.0,137.6953125,-927.24609375,553.22265625
0.6061561107635498,-700.68359375,-832.51953125,-822.265625,554.6875,-885.25390625
0.6100623607635498,679.6875,542.96875,-1000.0,-853.02734375,-295.41015625
0.6139686107635498,-859.86328125,-828.61328125,-414.55078125,701.171875,-1000.0
0.6129999160766602,13.18359375,130.859375,562.98828125,-775.87890625,-858.88671875
0.6169061660766602,-1000.0,-1000.0,200.68359375,-1000.0,502.9296875
0.6208124160766602,-853.02734375,-869.140625,-838.8671875,485.83984375,-832.51953125
0.6247186660766602,516.6015625,524.90234375,-1000.0,-874.51171875,-54.6875
0.6286249160766602,-816.89453125,-821.77734375,-480.95703125,819.82421875,-1000.0
0.6325311660766602,388.18359375,449.70703125,514.6484375,-583.984375,-901.85546875
0.6364374160766602,-985.3515625,-949.21875,418.9453125,-1000.0,407.2265625
0.6403436660766602,-901.85546875,-927.734375,-721.19140625,304.6875,-803.22265625
0.6442499160766602,537.109375,524.90234375,-1000.0,-856.93359375,482.91015625
0.6481561660766602,-833.0078125,-841.796875,-548.33984375,804.6875,-887.20703125
0.6520624160766602,614.2578125,661.1328125,416.50390625,-554.19921875,-1000.0
0.6559686660766602,-878.90625,-788.0859375,477.5390625,-1000.0,297.36328125
0.6599998474121094,-941.89453125,-1000.0,-657.2265625,3.90625,-807.6171875
0.6639060974121094,561.03515625,423.33984375,-1000.0,-896.97265625,526.85546875
0.6678123474121094,-863.28125,-854.00390625,-681.640625,813.4765625,-814.453125
0.6717185974121094,733.88671875,762.6953125,346.19140625,-544.43359375,-1000.0
0.6756248474121094,-740.72265625,-646.484375,553.22265625,-1000.0,-21.97265625
0.6795310974121094,-1000.0,-1000.0,-580.078125,-382.32421875,-896.484375
0.6834373474121094,490.234375,253.41796875,-1000.0,958.984375,766.6015625
0.6873435974121094,-875.0,-859.86328125,-714.35546875,926.7578125,-606.93359375
0.6912498474121094,819.3359375,800.29296875,220.21484375,-464.84375,-1000.0
0.6951560974121094,-583.984375,-559.08203125,575.68359375,-1000.0,-418.45703125
0.6990623474121094,-1000.0,-1000.0,-472.65625,-628.41796875,960.9375
0.7029685974121094,304.6875,-61.5234375,-1000.0,791.9921875,869.140625
0.7030000686645508,-857.91015625,-921.38671875,-843.26171875,-937.01171875,-570.80078125
0.7069063186645508,809.08203125,837.40234375,33.203125,-322.265625,-1000.0
0.7108125686645508,-560.546875,-540.0390625,645.5078125,-1000.0,-618.1640625
0.7147188186645508,-1000.0,-1000.0,-212.890625,-634.27734375,852.5390625
0.7186250686645508,103.515625,-317.87109375,-976.07421875,681.640625,806.640625
0.7225313186645508,-863.28125,977.05078125,-909.66796875,-867.1875,-621.09375
0.7264375686645508,796.875,908.203125,-32.71484375,-23.92578125,-1000.0
0.7303438186645508,-536.62109375,-466.796875,686.03515625,-1000.0,-680.6640625
0.7342500686645508,-1000.0,-1000.0,-59.08203125,-845.703125,809.5703125
0.7381563186645508,-376.953125,-642.578125,-927.734375,512.6953125,949.21875
0.7420625686645508,944.3359375,785.15625,-978.02734375,-809.08203125,-550.29296875
0.7459688186645508,964.84375,-954.1015625,-195.80078125,358.88671875,-1000.0
0.75,-391.6015625,-328.125,592.7734375,-1000.0,-833.984375
0.75390625,-1000.0,-1000.0,-37.109375,-894.53125,603.02734375
0.7578125,-618.65234375,-763.18359375,-904.296875,536.1328125,-949.21875
0.76171875,787.59765625,631.8359375,-1000.0,-834.9609375,-439.453125
0.765625,-919.921875,-865.234375,-362.3046875,631.8359375,-1000.0
0.76953125,-244.62890625,-102.5390625,566.40625,-865.72265625,-846.19140625
0.7734375,-1000.0,-1000.0,211.42578125,-945.80078125,540.0390625
0.77734375,-726.5625,-842.7734375,-794.921875,563.96484375,-863.76953125
0.78125,652.34375,528.3203125,-1000.0,-862.3046875,-224.12109375
0.78515625,-847.65625,-821.2890625,-456.54296875,736.328125,-1000.0
0.7890625,54.19921875,205.078125,516.6015625,-712.40234375,-868.1640625
0.79296875,-1000.0,-1000.0,279.296875,-1000.0,486.328125
0.7950000762939453,-857.91015625,-877.44140625,-784.1796875,397.94921875,-821.77734375
0.7989063262939453,518.06640625,528.3203125,-1000.0,-864.74609375,26.3671875
0.8028125762939453,-811.5234375,-824.21875,-478.515625,814.94140625,-1000.0
0.8067188262939453,358.88671875,502.44140625,486.328125,-572.75390625,-925.29296875
0.8106250762939453,-1000.0,-919.43359375,421.875,-1000.0,385.25390625
0.8145313262939453,-894.53125,-950.68359375,-695.3125,218.26171875,-806.15234375
0.8184375762939453,535.64453125,507.8125,-1000.0,-857.421875,541.015625
0.8223438262939453,-835.44921875,-844.23828125,-637.20703125,804.19921875,-839.35546875
0.8262500762939453,631.34765625,687.5,396.484375,-550.78125,-1000.0
0.8301563262939453,-865.72265625,-753.41796875,505.37109375,-1000.0,228.02734375
0.8340625762939453,-945.80078125,-1000.0,-647.4609375,-94.23828125,-821.2890625
0.8379688262939453,565.4296875,380.859375,-1000.0,-923.828125,591.796875
0.8559999465942383,-870.1171875,-854.98046875,-707.03125,827.63671875,-774.90234375
0.8599061965942383,764.16015625,777.34375,347.16796875,-551.7578125,-1000.0
0.8638124465942383,-681.640625,-616.2109375,583.49609375,-1000.0,-20.99609375
0.8677186965942383,-1000.0,-1000.0,-577.1484375,-375.9765625,-899.90234375
0.8716249465942383,398.92578125,179.19921875,-1000.0,943.84765625,746.58203125
0.8755311965942383,-865.234375,-869.140625,-700.1953125,967.7734375,-605.95703125
0.8794374465942383,814.94140625,806.640625,350.5859375,-386.23046875,-1000.0
0.8833436965942383,-574.21875,-548.33984375,616.2109375,-1000.0,-499.0234375
0.8872499465942383,-1000.0,-1000.0,-472.16796875,-635.25390625,928.7109375
0.8911561965942383,224.609375,-167.48046875,-1000.0,770.5078125,873.046875
0.8950624465942383,-858.3984375,-953.61328125,-849.609375,-907.71484375,-588.37890625
0.8989686965942383,806.15234375,848.6328125,5.37109375,-227.5390625,-1000.0
0.9129998683929443,-553.7109375,-530.2734375,655.76171875,-1000.0,-669.43359375
0.9169061183929443,-1000.0,-1000.0,-152.83203125,-772.4609375,824.70703125
0.9208123683929443,-51.7578125,-494.140625,-962.40234375,601.5625,914.0625
0.9247186183929443,-918.45703125,900.87890625,-911.1328125,-833.984375,-596.19140625
0.9286248683929443,836.9140625,953.125,-35.64453125,70.3125,-1000.0
0.9325311183929443,-524.4140625,-453.61328125,661.62109375,-1000.0,-758.7890625
0.9364373683929443,-1000.0,-1000.0,-64.94140625,-860.3515625,712.890625
0.9403436183929443,-376.46484375,-671.38671875,-921.38671875,520.5078125,986.328125
0.9442498683929443,943.84765625,748.53515625,-982.91015625,-811.5234375,-526.3671875
0.9481561183929443,967.28515625,-929.19921875,-91.796875,358.88671875,-1000.0
0.9520623683929443,-386.71875,-272.94921875,668.45703125,-1000.0,-837.40234375
0.9559686183929443,-1000.0,-1000.0,-36.1328125,-894.53125,582.03125
0.9340000152587891,-634.765625,-793.45703125,-902.83203125,536.1328125,-916.9921875
0.9379062652587891,769.04296875,592.7734375,-1000.0,-834.47265625,-375.0
0.9418125152587891,-906.25,-849.609375,-381.8359375,629.8828125,-1000.0
0.9457187652587891,-220.21484375,-27.34375,541.015625,-860.83984375,-843.26171875
0.9496250152587891,-1000.0,-1000.0,196.2890625,-959.9609375,532.71484375
0.9535312652587891,-767.578125,-854.00390625,-820.3125,543.45703125,-847.16796875
0.9574375152587891,593.75,520.99609375,-1000.0,-866.69921875,-143.06640625
0.9613437652587891,-828.61328125,-818.359375,-424.8046875,764.6484375,-1000.0
0.9652500152587891,178.22265625,289.55078125,537.109375,-682.12890625,-890.625
0.9691562652587891,-1000.0,-1000.0,299.8046875,-1000.0,455.56640625
0.9730625152587891,-869.140625,-888.18359375,-775.390625,399.4140625,-814.94140625
0.9769687652587891,521.97265625,533.69140625,-1000.0,-864.2578125,92.7734375
0.9879999160766602,-822.75390625,-831.0546875,-496.09375,813.4765625,-1000.0
0.9919061660766602,546.875,574.21875,480.46875,-570.80078125,-963.37890625
0.9958124160766602,-915.52734375,-868.1640625,417.48046875,-1000.0,333.984375
0.9997186660766602,-928.22265625,-983.3984375,-705.078125,205.078125,-810.546875
1.0036249160766602,552.24609375,483.3984375,-1000.0,-856.4453125,598.6328125
1.0075311660766602,-850.09765625,-850.09765625,-526.3671875,799.31640625,-790.0390625
1.0114374160766602,684.5703125,724.12109375,469.7265625,-542.96875,-1000.0
1.0153436660766602,-810.546875,-708.0078125,519.53125,-1000.0,169.921875
1.0192499160766602,-972.16796875,-1000.0,-611.328125,-191.40625,-836.9140625
1.0231561660766602,549.8046875,342.28515625,-1000.0,-961.42578125,646.97265625
1.0270624160766602,-873.53515625,-856.4453125,-734.86328125,865.234375,-710.44921875
1.0309686660766602,783.203125,791.9921875,280.76171875,-501.46484375,-1000.0
1.0349998474121094,-657.2265625,-588.37890625,565.91796875,-1000.0,-253.41796875
1.0389060974121094,-1000.0,-1000.0,-564.453125,-565.4296875,-969.7265625
1.0428123474121094,399.4140625,106.93359375,-1000.0,860.83984375,750.48828125
1.0467185974121094,-864.2578125,-881.34765625,-773.4375,-997.0703125,-629.39453125
1.0506248474121094,813.4765625,813.4765625,123.53515625,-398.4375,-1000.0
1.0545310974121094,-570.80078125,-541.9921875,642.08984375,-1000.0,-498.53515625
1.0584373474121094,-1000.0,-1000.0,-272.94921875,-688.4765625,930.6640625
1.0623435974121094,205.56640625,-243.1640625,-982.421875,720.21484375,876.46484375
1.0662498474121094,-858.88671875,-982.421875,-891.11328125,-893.06640625,-583.984375
1.0701560974121094,802.734375,872.55859375,-40.0390625,-225.09765625,-1000.0
1.0740623474121094,-535.64453125,-506.34765625,657.71484375,-1000.0,-696.77734375
1.0779685974121094,-1000.0,-1000.0,-21.484375,-785.15625,800.29296875
1.0789999961853027,-187.5,-553.22265625,-898.92578125,571.77734375,918.9453125
1.0829062461853027,-972.16796875,860.3515625,-994.140625,-822.265625,-600.5859375
1.0868124961853027,894.04296875,990.234375,-176.26953125,165.0390625,-1000.0
1.0907187461853027,-449.21875,-404.78515625,581.54296875,-1000.0,-770.99609375
1.0946249961853027,-1000.0,-1000.0,-36.1328125,-865.234375,686.03515625
1.0985312461853027,-559.5703125,-704.58984375,-906.73828125,519.04296875,-984.86328125
1.1024374961853027,848.14453125,708.0078125,-1000.0,-816.40625,-478.515625
1.1063437461853027,-963.8671875,-903.3203125,-139.16015625,548.828125,-1000.0
1.1102499961853027,-319.3359375,-211.42578125,648.4375,-929.19921875,-847.65625
1.1141562461853027,-1000.0,-1000.0,-6.34765625,-927.734375,565.91796875
1.1180624961853027,-675.29296875,-814.453125,-893.06640625,553.7109375,-905.2734375
1.1219687461853027,712.890625,563.96484375,-1000.0,-851.07421875,-352.05078125
1.1540000438690186,-877.9296875,-837.40234375,-407.2265625,689.453125,-1000.0
1.1579062938690186,-42.48046875,58.10546875,536.62109375,-787.109375,-842.28515625
1.1618125438690186,-1000.0,-1000.0,239.2578125,-1000.0,530.76171875
1.1657187938690186,-799.8046875,-861.81640625,-800.29296875,490.72265625,-844.7265625
1.1696250438690186,591.30859375,522.94921875,-1000.0,-865.72265625,-109.86328125
1.1735312938690186,-831.0546875,-820.3125,-393.5546875,683.59375,-1000.0
1.1774375438690186,242.67578125,378.41796875,572.75390625,-665.0390625,-866.2109375
1.1813437938690186,-1000.0,-984.86328125,413.57421875,-1000.0,492.1875
1.1852500438690186,-879.39453125,-905.76171875,-742.1875,295.8984375,-812.98828125
1.1891562938690186,526.3671875,536.1328125,-1000.0,-854.98046875,171.875
1.1930625438690186,-824.70703125,-837.890625,-535.15625,807.6171875,-1000.0
1.1969687938690186,568.359375,620.1171875,447.75390625,-559.08203125,-998.046875
1.1679999828338623,-902.83203125,-825.1953125,444.3359375,-1000.0,295.41015625
1.1719062328338623,-931.640625,-1000.0,-697.265625,62.5,-797.8515625
1.1758124828338623,554.6875,453.61328125,-1000.0,-886.23046875,477.5390625
1.1797187328338623,-853.515625,-851.07421875,-495.1171875,619.62890625,-866.69921875
1.1836249828338623,700.68359375,740.72265625,463.37890625,-625.9765625,-1000.0
1.1875312328338623,-776.85546875,-678.22265625,535.64453125,-1000.0,125.48828125
1.1914374828338623,-1000.0,-1000.0,-511.71875,-251.953125,-858.88671875
1.1953437328338623,488.28125,294.43359375,-1000.0,-980.95703125,713.8671875
1.1992499828338623,-875.48828125,-856.4453125,-766.6015625,897.4609375,-634.27734375
1.2031562328338623,819.3359375,795.8984375,243.65234375,-466.30859375,-1000.0
1.2070624828338623,-584.47265625,-571.2890625,578.61328125,-1000.0,-352.5390625
1.2109687328338623,-1000.0,-1000.0,-520.99609375,-557.6171875,991.69921875
1.2300000190734863,311.03515625,12.20703125,-1000.0,845.703125,809.5703125
1.2339062690734863,-867.1875,-902.83203125,-763.671875,-957.51953125,-602.05078125
1.2378125190734863,837.890625,835.9375,240.72265625,-308.10546875,-1000.0
1.2417187690734863,-526.3671875,-546.875,652.83203125,-1000.0,-599.12109375
1.2456250190734863,-1000.0,-1000.0,-289.0625,-700.1953125,867.67578125
1.2495312690734863,145.99609375,-95.703125,-954.58984375,690.91796875,706.0546875
1.2534375190734863,-867.1875,-918.45703125,-829.58984375,-991.2109375,-663.57421875
1.2573437690734863,819.3359375,852.5390625,8.30078125,-138.671875,-1000.0
1.2612500190734863,-510.7421875,-478.02734375,642.578125,-1000.0,-743.65234375
1.2651562690734863,-1000.0,-1000.0,-73.73046875,-856.93359375,771.484375
1.2690625190734863,-189.453125,-599.609375,-905.76171875,521.97265625,936.5234375
1.2729687690734863,-972.65625,823.73046875,-1000.0,-813.4765625,-590.8203125
1.2730000019073486,894.04296875,-985.3515625,-214.35546875,202.63671875,-1000.0
1.2769062519073486,-430.17578125,-370.60546875,616.2109375,-1000.0,-818.84765625
1.2808125019073486,-1000.0,-1000.0,-59.08203125,-871.09375,615.72265625
1.2847187519073486,-562.01171875,-732.421875,-927.24609375,521.97265625,-943.84765625
1.2886250019073486,847.65625,673.828125,-988.76953125,-817.3828125,-422.36328125
1.2925312519073486,-958.984375,-885.25390625,-225.5859375,548.828125,-1000.0
1.2964375019073486,-308.59375,-158.69140625,619.140625,-929.19921875,-830.078125
1.3003437519073486,-1000.0,-1000.0,45.8984375,-927.24609375,539.55078125
1.3042500019073486,-702.1484375,-832.51953125,-895.01953125,554.6875,-846.6796875
1.3081562519073486,681.640625,541.50390625,-1000.0,-853.02734375,-111.328125
1.3120625019073486,-858.88671875,-828.125,-343.75,700.1953125,-1000.0
1.3159687519073486,-27.34375,128.90625,538.0859375,-773.4375,-877.9296875
1.318000078201294,-1000.0,-1000.0,229.98046875,-1000.0,513.671875
1.321906328201294,-846.19140625,-868.65234375,-786.1328125,472.65625,-834.47265625
1.325812578201294,513.18359375,524.90234375,-1000.0,-867.67578125,-54.6875
1.329718828201294,-813.4765625,-821.2890625,-527.83203125,813.96484375,-1000.0
1.333625078201294,373.53515625,442.3828125,481.93359375,-582.51953125,-909.66796875
1.337531328201294,-998.046875,-954.1015625,347.16796875,-1000.0,418.45703125
1.341437578201294,-898.92578125,-927.24609375,-749.0234375,338.37890625,-799.8046875
1.345343828201294,538.0859375,522.4609375,-1000.0,-873.046875,263.671875
1.349250078201294,-838.37890625,-841.30859375,-540.0390625,812.5,-984.375
1.353156328201294,632.32421875,660.64453125,452.1484375,-557.12890625,-1000.0
1.357062578201294,-853.515625,-786.62109375,465.8203125,-1000.0,270.99609375
1.360968828201294,-945.80078125,-1000.0,-654.296875,3.90625,-803.22265625
1.378999948501587,562.01171875,417.48046875,-1000.0,-896.484375,547.8515625
1.382906198501587,-862.79296875,-853.515625,-685.546875,813.4765625,-811.03515625
1.386812448501587,734.86328125,761.71875,327.1484375,-544.43359375,-1000.0
1.390718698501587,-739.74609375,-645.99609375,567.3828125,-1000.0,15.625
1.394624948501587,-1000.0,-1000.0,-485.3515625,-381.34765625,-889.16015625
1.398531198501587,489.74609375,246.09375,-1000.0,957.03125,758.7890625
1.402437448501587,-875.0,-860.83984375,-766.6015625,933.59375,-636.71875
1.406343698501587,819.3359375,801.26953125,255.37109375,-452.1484375,-1000.0
1.410249948501587,-583.984375,-559.08203125,652.34375,-1000.0,-109.375
1.414156198501587,-1000.0,-1000.0,-466.30859375,-629.39453125,-934.5703125
1.418062448501587,304.6875,-61.5234375,-1000.0,792.48046875,765.625
1.421968698501587,-857.91015625,-921.38671875,-814.453125,-941.89453125,-583.49609375
1.4119999408721924,804.6875,832.51953125,82.03125,-316.40625,-1000.0
1.4159061908721924,-552.734375,-532.2265625,659.66796875,-1000.0,-609.375
1.4198124408721924,-1000.0,-1000.0,-225.5859375,-741.69921875,867.67578125
1.4237186908721924,16.6015625,-408.203125,-982.421875,651.3671875,901.85546875
1.4276249408721924,-890.13671875,949.70703125,-926.7578125,-852.5390625,-588.8671875
1.4315311908721924,527.34375,637.6953125,70.3125,-131.34765625,-1000.0
1.4354374408721924,-660.64453125,-593.75,705.56640625,-1000.0,-735.83984375
1.4393436908721924,-1000.0,-1000.0,-86.42578125,-829.1015625,753.90625
1.4432499408721924,-396.97265625,-666.9921875,-897.94921875,504.39453125,950.1953125
1.4471561908721924,946.2890625,788.57421875,-1000.0,-806.640625,-570.80078125
1.4510624408721924,974.609375,-949.70703125,-237.3046875,358.88671875,-1000.0
1.4549686908721924,-337.890625,-307.12890625,645.99609375,-1000.0,-771.97265625
1.4530000686645508,-1000.0,-1000.0,70.80078125,-894.53125,674.8046875
1.4569063186645508,-622.0703125,-766.11328125,-894.53125,536.1328125,-966.30859375
1.4608125686645508,784.1796875,630.859375,-1000.0,-834.9609375,-442.3828125
1.4647188186645508,-916.50390625,-864.2578125,-290.0390625,631.34765625,-1000.0
1.4686250686645508,-164.0625,-86.9140625,595.703125,-865.72265625,-834.47265625
1.4725313186645508,-1000.0,-1000.0,138.671875,-945.80078125,521.97265625
1.4764375686645508,-739.74609375,-844.7265625,-863.28125,563.96484375,-836.9140625
1.4803438186645508,656.25,528.80859375,-1000.0,-864.2578125,-55.6640625
1.4842500686645508,-852.05078125,-822.265625,-382.32421875,742.1875,-1000.0
1.4881563186645508,82.03125,219.7265625,507.32421875,-705.56640625,-894.04296875
1.4920625686645508,-1000.0,-1000.0,302.734375,-1000.0,487.79296875
1.4959688186645508,-863.28125,-879.8828125,-745.1171875,398.4375,-823.2421875
1.5,520.99609375,529.78515625,-1000.0,-864.74609375,22.4609375
1.50390625,-815.4296875,-826.171875,-548.828125,814.453125,-1000.0
1.5078125,379.39453125,515.13671875,477.5390625,-572.75390625,-946.77734375
1.51171875,-994.62890625,-910.15625,391.6015625,-1000.0,357.421875
1.515625,-898.92578125,-953.125,-734.86328125,216.796875,-795.41015625
1.51953125,537.109375,509.27734375,-1000.0,-857.421875,387.6953125
1.5234375,-835.44921875,-845.703125,-558.10546875,804.19921875,-918.45703125
1.52734375,631.34765625,690.91796875,487.3046875,-550.29296875,-1000.0
1.53125,-865.72265625,-749.51171875,458.984375,-1000.0,192.87109375
1.53515625,-945.80078125,-1000.0,-659.66796875,-96.6796875,-841.30859375
1.5390625,564.94140625,379.8828125,-1000.0,-924.31640625,714.84375
1.54296875,-870.60546875,-854.98046875,-720.21484375,828.125,-659.66796875
1.5439999103546143,763.671875,778.3203125,286.1328125,-551.7578125,-1000.0
1.5479061603546143,-681.640625,-615.234375,562.98828125,-1000.0,-122.0703125
1.5518124103546143,-1000.0,-1000.0,-542.96875,-376.953125,-936.03515625
1.5557186603546143,398.92578125,179.6875,-1000.0,943.359375,783.69140625
1.5596249103546143,-865.234375,-869.140625,-766.6015625,967.7734375,-625.48828125
1.5635311603546143,814.94140625,806.640625,212.40234375,-386.23046875,-1000.0
1.5674374103546143,-574.21875,-547.8515625,664.55078125,-1000.0,-150.87890625
1.5713436603546143,-1000.0,-1000.0,-375.48828125,-635.25390625,-952.1484375
1.5752499103546143,228.02734375,-167.96875,-1000.0,770.99609375,813.96484375
1.5791561603546143,-864.74609375,-955.078125,-839.84375,-907.71484375,-563.4765625
1.5830624103546143,821.77734375,853.515625,75.68359375,-228.02734375,-1000.0
1.5869686603546143,-519.04296875,-521.484375,645.99609375,-1000.0,-677.24609375
1.6050000190734863,-1000.0,-1000.0,-214.35546875,-772.4609375,811.03515625
1.6089062690734863,-70.80078125,-496.58203125,-956.54296875,601.07421875,935.05859375
1.6128125190734863,-927.24609375,898.92578125,-925.78125,-833.49609375,-569.3359375
1.6167187690734863,850.5859375,956.54296875,-148.92578125,74.21875,-1000.0
1.6206250190734863,-497.55859375,-445.80078125,615.72265625,-1000.0,-771.97265625
1.6245312690734863,-1000.0,-1000.0,-19.53125,-860.83984375,699.21875
1.6284375190734863,-374.0234375,-672.36328125,-896.484375,520.5078125,991.2109375
1.6323437690734863,939.94140625,747.0703125,-1000.0,-811.5234375,-519.53125
1.6362500190734863,972.65625,-927.734375,-277.83203125,358.88671875,-1000.0
1.6401562690734863,-323.73046875,-263.18359375,604.98046875,-1000.0,-787.109375
1.6440625190734863,-1000.0,-1000.0,68.359375,-894.53125,644.04296875
1.6479687690734863,-642.578125,-794.921875,-895.01953125,535.64453125,-933.59375
1.6489999294281006,772.4609375,592.28515625,-1000.0,-828.61328125,-382.8125
1.6529061794281006,-907.71484375,-850.09765625,-264.6484375,622.0703125,-1000.0
1.6568124294281006,-194.3359375,-21.97265625,592.28515625,-855.46875,-841.796875
1.6607186794281006,-1000.0,-1000.0,58.59375,-872.0703125,531.25
1.6646249294281006,-771.97265625,-854.98046875,-872.0703125,559.08203125,-845.703125
1.6685311794281006,596.19140625,521.484375,-1000.0,-880.859375,-128.41796875
1.6724374294281006,-829.1015625,-819.3359375,-411.1328125,772.4609375,-1000.0
1.6763436794281006,175.29296875,296.875,526.3671875,-685.546875,-893.5546875
1.6802499294281006,-1000.0,-1000.0,326.171875,-1000.0,454.58984375
1.6841561794281006,-868.65234375,-889.6484375,-725.09765625,399.4140625,-812.98828125
1.6880624294281006,521.97265625,534.1796875,-1000.0,-864.2578125,91.30859375
1.6919686794281006,-822.265625,-831.0546875,-578.61328125,813.4765625,-1000.0
1.694000005722046,544.921875,572.265625,472.65625,-570.80078125,-969.7265625
1.697906255722046,-916.9921875,-869.140625,425.78125,-1000.0,332.03125
1.701812505722046,-928.22265625,-983.88671875,-725.5859375,205.078125,-795.8984375
1.705718755722046,551.7578125,480.95703125,-1000.0,-856.4453125,417.48046875
1.709625005722046,-848.6328125,-848.6328125,-601.07421875,798.828125,-904.296875
1.713531255722046,676.7578125,718.75,434.08203125,-542.96875,-1000.0
1.717437505722046,-816.89453125,-712.890625,516.11328125,-1000.0,181.15234375
1.721343755722046,-973.6328125,-1000.0,-637.20703125,-191.40625,-853.02734375
1.725250005722046,544.43359375,339.35546875,-1000.0,-961.9140625,746.58203125
1.729156255722046,-873.53515625,-856.93359375,-726.5625,865.234375,-607.91015625
1.733062505722046,785.64453125,793.45703125,237.79296875,-500.9765625,-1000.0
1.736968755722046,-653.80859375,-585.44921875,564.94140625,-1000.0,-242.67578125
1.7379999160766602,-1000.0,-1000.0,-467.28515625,-564.94140625,-970.703125
1.7419061660766602,401.3671875,100.09765625,-1000.0,860.83984375,782.2265625
1.7458124160766602,-869.140625,-883.30078125,-797.8515625,-996.09375,-625.9765625
1.7497186660766602,827.63671875,815.4296875,206.54296875,-396.484375,-1000.0
1.7536249160766602,-547.8515625,-540.0390625,705.56640625,-1000.0,-290.0390625
1.7575311660766602,-1000.0,-1000.0,-235.3515625,-691.89453125,-992.67578125
1.7614374160766602,205.078125,-245.1171875,-992.67578125,717.28515625,841.796875
1.7653436660766602,-856.4453125,-982.421875,-858.88671875,-892.08984375,-565.4296875
1.7692499160766602,798.828125,871.58203125,132.8125,-226.07421875,-1000.0
1.7731561660766602,-542.96875,-508.7890625,671.38671875,-1000.0,-710.9375
1.7770624160766602,-1000.0,-1000.0,-212.40234375,-790.0390625,786.1328125
1.7809686660766602,-187.01171875,-553.22265625,-949.21875,564.94140625,925.29296875
1.7849998474121094,-973.6328125,859.375,-966.796875,-820.80078125,-600.5859375
1.7889060974121094,896.484375,990.72265625,-186.5234375,164.55078125,-1000.0
1.7928123474121094,-442.3828125,-397.94921875,615.234375,-1000.0,-801.7578125
1.7967185974121094,-1000.0,-1000.0,-17.08984375,-865.234375,649.90234375
1.8006248474121094,-554.6875,-705.56640625,-903.80859375,519.04296875,-974.609375
1.8045310974121094,843.75,708.0078125,-1000.0,-816.40625,-474.609375
1.8084373474121094,-958.984375,-902.83203125,-225.09765625,548.828125,-1000.0
1.8123435974121094,-254.39453125,-206.0546875,624.51171875,-929.19921875,-838.8671875
1.8162498474121094,-1000.0,-1000.0,34.1796875,-927.24609375,571.77734375
1.8201560974121094,-688.96484375,-814.94140625,-892.578125,554.19921875,-898.92578125
1.8240623474121094,714.84375,564.453125,-1000.0,-853.02734375,-335.9375
1.8279685974121094,-878.41796875,-836.42578125,-269.53125,698.73046875,-1000.0
1.8280000686645508,-53.22265625,55.6640625,639.16015625,-779.296875,-849.609375
1.8319063186645508,-1000.0,-1000.0,118.1640625,-1000.0,520.99609375
1.8358125686645508,-798.828125,-861.328125,-856.4453125,485.3515625,-842.28515625
1.8397188186645508,588.8671875,522.4609375,-1000.0,-865.72265625,-111.81640625
1.8436250686645508,-829.58984375,-819.82421875,-454.58984375,788.57421875,-1000.0
1.8475313186645508,240.72265625,375.0,530.76171875,-624.51171875,-887.6953125
1.8514375686645508,-1000.0,-987.79296875,375.9765625,-1000.0,446.77734375
1.8553438186645508,-878.41796875,-905.76171875,-713.8671875,303.7109375,-803.7109375
1.8592500686645508,523.92578125,533.69140625,-1000.0,-857.91015625,220.703125
1.8631563186645508,-818.84765625,-836.9140625,-600.09765625,807.12890625,-1000.0
1.8670625686645508,548.33984375,618.1640625,441.89453125,-558.59375,-990.72265625
1.8709688186645508,-929.19921875,-828.61328125,440.91796875,-1000.0,324.70703125
1.875,-927.24609375,-1000.0,-705.56640625,43.9453125,-799.31640625
1.87890625,554.19921875,453.125,-1000.0,-889.16015625,465.33203125
1.8828125,-854.00390625,-852.05078125,-633.7890625,815.91796875,-863.28125
1.88671875,700.68359375,744.140625,375.9765625,-550.29296875,-1000.0
1.890625,-776.85546875,-674.8046875,516.11328125,-1000.0,67.87109375
1.89453125,-1000.0,-1000.0,-588.37890625,-250.9765625,-880.37109375
1.8984375,488.28125,293.9453125,-1000.0,-991.69921875,775.87890625
1.90234375,-875.0,-856.4453125,-734.375,899.4140625,-583.984375
1.90625,819.3359375,795.8984375,227.05078125,-467.28515625,-1000.0
1.91015625,-583.984375,-570.80078125,511.71875,-1000.0,-342.7734375
1.9140625,-1000.0,-1000.0,-434.5703125,-557.6171875,994.62890625
1.91796875,306.640625,10.25390625,-1000.0,845.703125,791.015625
1.9179999828338623,-864.2578125,-902.83203125,-854.00390625,-958.0078125,-610.83984375
1.9219062328338623,826.171875,823.73046875,108.88671875,-308.59375,-1000.0
1.9258124828338623,-534.1796875,-537.109375,676.7578125,-1000.0,-611.328125
1.9297187328338623,-1000.0,-1000.0,-258.7890625,-705.078125,866.2109375
1.9336249828338623,76.66015625,-348.14453125,-993.1640625,686.5234375,902.34375
1.9375312328338623,-889.16015625,976.07421875,-867.67578125,-863.76953125,-588.37890625
1.9414374828338623,826.66015625,897.94921875,96.6796875,-71.2890625,-1000.0
1.9453437328338623,-517.578125,-497.55859375,667.96875,-1000.0,-727.05078125
1.9492499828338623,-1000.0,-1000.0,-173.33984375,-847.65625,758.7890625
1.9531562328338623,-224.12109375,-604.00390625,-935.546875,518.5546875,955.078125
1.9570624828338623,-989.74609375,819.82421875,-989.2578125,-812.98828125,-562.01171875
1.9609687328338623,908.203125,-981.4453125,-201.171875,222.65625,-1000.0
1.9819998741149902,-402.83203125,-363.28125,629.8828125,-1000.0,-799.8046875
1.9859061241149902,-1000.0,-1000.0,-30.2734375,-874.51171875,653.3203125
1.9898123741149902,-563.96484375,-734.375,-904.296875,523.4375,-979.00390625
1.9937186241149902,848.14453125,671.875,-1000.0,-817.87109375,-475.09765625
1.9976248741149902,-958.984375,-884.27734375,-330.56640625,548.828125,-1000.0
2.0015311241149902,-294.43359375,-154.78515625,587.890625,-929.19921875,-816.40625
2.0054373741149902,-1000.0,-1000.0,110.3515625,-927.24609375,584.47265625
2.0093436241149902,-704.58984375,-833.984375,-876.953125,554.6875,-883.7890625
2.0132498741149902,682.6171875,540.52734375,-1000.0,-853.02734375,-270.01953125
2.0171561241149902,-859.375,-827.63671875,-310.546875,699.21875,-1000.0
2.0210623741149902,-30.2734375,129.39453125,584.47265625,-770.99609375,-858.88671875
2.0249686241149902,-1000.0,-1000.0,172.8515625,-1000.0,501.46484375
2.0260000228881836,-845.21484375,-868.65234375,-822.265625,458.984375,-828.61328125
2.0299062728881836,513.671875,524.90234375,-1000.0,-872.0703125,-32.2265625
2.0338125228881836,-816.40625,-822.265625,-483.88671875,820.80078125,-1000.0
2.0377187728881836,389.16015625,453.61328125,502.9296875,-584.47265625,-905.2734375
2.0416250228881836,-984.375,-945.80078125,402.34375,-1000.0,424.8046875
2.0455312728881836,-902.34375,-930.6640625,-708.49609375,304.6875,-803.7109375
2.0494375228881836,539.55078125,521.97265625,-1000.0,-856.93359375,334.47265625
2.0533437728881836,-840.8203125,-841.30859375,-609.86328125,804.6875,-977.05078125
2.0572500228881836,641.11328125,655.2734375,418.45703125,-554.19921875,-983.88671875
2.0611562728881836,-843.75,-788.0859375,551.26953125,-1000.0,384.27734375
2.0650625228881836,-947.75390625,-1000.0,-614.74609375,3.90625,-808.59375
2.0689687728881836,562.01171875,414.0625,-1000.0,-896.484375,532.71484375
2.068000078201294,-862.3046875,-853.02734375,-666.015625,813.96484375,-806.15234375
2.071906328201294,732.421875,761.71875,349.12109375,-544.43359375,-1000.0
2.075812578201294,-738.76953125,-645.01953125,525.87890625,-1000.0,-25.87890625
2.079718828201294,-1000.0,-1000.0,-600.09765625,-381.34765625,-902.34375
2.083625078201294,476.5625,239.74609375,-1000.0,956.54296875,765.13671875
2.087531328201294,-874.0234375,-861.328125,-750.0,935.05859375,-607.421875
2.091437578201294,819.3359375,801.26953125,229.00390625,-449.21875,-1000.0
2.095343828201294,-584.47265625,-558.59375,620.60546875,-1000.0,-339.35546875
2.099250078201294,-1000.0,-1000.0,-358.3984375,-633.30078125,995.1171875
2.103156328201294,304.19921875,-72.75390625,-1000.0,789.55078125,793.9453125
2.107062578201294,-857.421875,-925.29296875,-874.0234375,-940.91796875,-603.515625
2.110968828201294,804.19921875,836.42578125,44.921875,-316.89453125,-1000.0
2.11299991607666,-554.6875,-528.80859375,665.52734375,-1000.0,-622.55859375
2.11690616607666,-1000.0,-1000.0,-229.4921875,-747.55859375,856.4453125
2.12081241607666,5.37109375,-426.26953125,-991.69921875,632.8125,899.4140625
2.12471866607666,-900.390625,938.96484375,-888.671875,-847.65625,-593.26171875
2.12862491607666,821.2890625,927.24609375,41.015625,-32.2265625,-1000.0
2.13253116607666,-525.87890625,-470.703125,686.03515625,-1000.0,-718.26171875
2.13643741607666,-1000.0,-1000.0,-60.546875,-845.21484375,740.72265625
2.14034366607666,-372.0703125,-645.5078125,-909.66796875,512.6953125,-991.69921875
2.14424991607666,936.03515625,777.34375,-964.35546875,-809.08203125,-464.35546875
2.14815616607666,978.515625,-947.75390625,-223.6328125,358.88671875,-1000.0
2.15206241607666,-309.5703125,-297.36328125,573.73046875,-1000.0,-836.42578125
2.15596866607666,-1000.0,-1000.0,-3.41796875,-894.53125,607.91015625
2.1599998474121094,-631.34765625,-770.5078125,-899.4140625,536.1328125,-953.61328125
2.1639060974121094,781.25,626.953125,-1000.0,-834.47265625,-447.75390625
2.1678123474121094,-913.57421875,-863.28125,-357.421875,631.8359375,-1000.0
2.1717185974121094,-168.45703125,-83.984375,578.125,-865.72265625,-844.7265625
2.1756248474121094,-1000.0,-1000.0,103.02734375,-945.80078125,536.62109375
2.1795310974121094,-753.41796875,-854.98046875,-886.71875,564.453125,-850.09765625
2.1834373474121094,655.2734375,537.59765625,-1000.0,-865.72265625,-212.40234375
2.1873435974121094,-848.6328125,-817.87109375,-376.46484375,748.046875,-1000.0
2.1912498474121094,-63.4765625,17.578125,474.609375,-699.21875,-659.66796875
2.1951560974121094,-1000.0,-1000.0,267.08984375,-1000.0,545.8984375
2.1990623474121094,-838.37890625,-844.23828125,-752.9296875,398.4375,-838.8671875
2.2029685974121094,508.30078125,513.18359375,-1000.0,-864.2578125,292.48046875
2.2039999961853027,-809.08203125,-820.3125,-507.8125,814.453125,-1000.0
2.2079062461853027,377.44140625,515.625,448.2421875,-571.77734375,-985.83984375
2.2118124961853027,-1000.0,-910.64453125,404.296875,-1000.0,372.55859375
2.2157187461853027,-897.94921875,-953.61328125,-711.42578125,210.44921875,-804.6875
2.2196249961853027,537.109375,508.7890625,-1000.0,-857.421875,406.25
2.2235312461853027,-835.9375,-846.19140625,-602.5390625,803.22265625,-942.87109375
2.2274374961853027,631.34765625,693.359375,460.9375,-549.31640625,-1000.0
2.2313437461853027,-865.72265625,-747.0703125,588.37890625,-1000.0,364.2578125
2.2352499961853027,-945.80078125,-1000.0,-610.3515625,-117.67578125,-815.4296875
2.2391562461853027,564.94140625,379.39453125,-1000.0,-930.17578125,550.78125
2.2430624961853027,-870.1171875,-854.98046875,-669.921875,830.56640625,-772.94921875
2.2469687461853027,763.671875,780.2734375,362.79296875,-552.734375,-1000.0
2.263000011444092,-681.640625,-612.79296875,573.73046875,-1000.0,-105.46875
2.266906261444092,-1000.0,-1000.0,-567.87109375,-386.23046875,-932.12890625
2.270812511444092,398.92578125,177.734375,-1000.0,939.453125,805.17578125
2.274718761444092,-865.234375,-869.62890625,-790.0390625,969.7265625,-572.75390625
2.278625011444092,814.94140625,806.640625,149.4140625,-387.20703125,-1000.0
2.282531261444092,-574.21875,-548.828125,634.27734375,-1000.0,-426.7578125
2.286437511444092,-1000.0,-1000.0,-288.57421875,-634.765625,961.42578125
2.290343761444092,226.5625,-167.96875,-976.5625,769.53125,849.12109375
2.294250011444092,-861.81640625,-954.58984375,-886.71875,-905.2734375,-589.84375
2.298156261444092,813.96484375,852.05078125,1.953125,-219.7265625,-1000.0
2.302062511444092,-531.25,-523.92578125,644.53125,-1000.0,-684.5703125
2.305968761444092,-1000.0,-1000.0,-207.51953125,-771.484375,812.5
2.2950000762939453,-83.0078125,-498.046875,-986.81640625,599.609375,921.38671875
2.2989063262939453,-934.5703125,896.484375,-927.24609375,-831.0546875,-604.00390625
2.3028125762939453,860.83984375,959.9609375,-50.29296875,103.515625,-1000.0
2.3067188262939453,-485.3515625,-440.4296875,601.5625,-1000.0,-648.4375
2.3106250762939453,-1000.0,-1000.0,-50.78125,-863.28125,726.5625
2.3145313262939453,-375.9765625,-673.33984375,-888.671875,520.99609375,-970.21484375
2.3184375762939453,942.87109375,746.09375,-984.86328125,-812.98828125,-398.4375
2.3223438262939453,969.7265625,-926.26953125,-252.9296875,395.99609375,-1000.0
2.3262500762939453,-354.4921875,-262.6953125,568.84765625,-996.09375,-839.84375
2.3301563262939453,-1000.0,-1000.0,19.53125,-901.3671875,585.44921875
2.3340625762939453,-639.16015625,-795.8984375,-893.06640625,539.0625,-914.55078125
2.3379688262939453,770.99609375,592.28515625,-1000.0,-834.47265625,-367.67578125
2.3550000190734863,-901.3671875,-844.23828125,-393.06640625,627.9296875,-1000.0
2.3589062690734863,-226.5625,-41.015625,574.70703125,-855.46875,-820.80078125
2.3628125190734863,-1000.0,-1000.0,268.5546875,-977.05078125,551.7578125
2.3667187690734863,-667.96875,-752.9296875,-814.94140625,517.08984375,-894.53125
2.3706250190734863,627.44140625,553.7109375,-1000.0,-863.76953125,-137.20703125
2.3745312690734863,-842.7734375,-834.47265625,-377.9296875,764.16015625,-1000.0
2.3784375190734863,172.8515625,307.12890625,600.5859375,-682.6171875,-888.671875
2.3823437690734863,-1000.0,-1000.0,301.26953125,-1000.0,433.10546875
2.3862500190734863,-865.72265625,-889.6484375,-770.01953125,397.94921875,-801.7578125
2.3901562690734863,520.01953125,534.1796875,-1000.0,-864.2578125,343.26171875
2.3940625190734863,-819.82421875,-831.0546875,-568.359375,813.96484375,-965.8203125
2.3979687690734863,545.41015625,575.68359375,434.5703125,-570.80078125,-1000.0
2.3980000019073486,-923.33984375,-867.1875,417.96875,-1000.0,347.16796875
2.4019062519073486,-932.6171875,-990.72265625,-693.84765625,205.078125,-798.33984375
2.4058125019073486,558.59375,485.83984375,-1000.0,-856.93359375,427.734375
2.4097187519073486,-851.5625,-851.07421875,-629.39453125,804.6875,-922.8515625
2.4136250019073486,581.54296875,621.09375,437.01171875,-549.31640625,-931.640625
2.4175312519073486,-845.703125,-745.1171875,568.359375,-1000.0,355.95703125
2.4214375019073486,-960.9375,-1000.0,-597.16796875,-90.8203125,-849.12109375
2.4253437519073486,533.203125,330.56640625,-1000.0,-929.19921875,699.70703125
2.4292500019073486,-870.1171875,-853.515625,-685.546875,854.4921875,-695.3125
2.4331562519073486,784.1796875,791.50390625,418.9453125,-484.375,-1000.0
2.4370625019073486,-655.76171875,-586.42578125,630.859375,-1000.0,35.15625
2.4409687519073486,-1000.0,-1000.0,-561.5234375,-564.94140625,-903.3203125
2.444000005722046,400.390625,93.75,-1000.0,860.83984375,777.83203125
2.447906255722046,-866.69921875,-884.765625,-809.08203125,-996.09375,-562.5
2.451812505722046,819.82421875,814.453125,106.93359375,-396.484375,-1000.0
2.455718755722046,-560.546875,-541.015625,629.39453125,-1000.0,-544.43359375
2.459625005722046,-1000.0,-1000.0,-273.4375,-702.63671875,902.83203125
2.463531255722046,204.58984375,-261.71875,-974.609375,707.03125,886.23046875
2.467437505722046,-856.93359375,-987.3046875,-891.11328125,-889.6484375,-584.47265625
2.471343755722046,798.828125,871.58203125,-29.78515625,-227.5390625,-1000.0
2.475250005722046,-542.96875,-514.6484375,666.015625,-1000.0,-583.984375
2.479156255722046,-1000.0,-1000.0,-107.421875,-800.78125,876.953125
2.483062505722046,-188.4765625,-557.6171875,-955.56640625,550.29296875,896.97265625
2.486968755722046,-970.21484375,857.91015625,-970.703125,-818.84765625,-593.75
2.489000082015991,889.6484375,989.74609375,-89.35546875,164.55078125,-1000.0
2.492906332015991,-462.40234375,-405.2734375,631.34765625,-1000.0,-791.9921875
2.496812582015991,-1000.0,-1000.0,-91.796875,-865.234375,627.44140625
2.500718832015991,-556.640625,-707.51953125,-918.9453125,519.04296875,-918.45703125
2.504625082015991,844.23828125,705.078125,-987.3046875,-816.89453125,-353.515625
2.508531332015991,-960.44921875,-902.34375,-224.609375,548.828125,-1000.0
2.512437582015991,-281.25,-213.37890625,613.28125,-929.19921875,-842.7734375
2.516343832015991,-1000.0,-1000.0,57.6171875,-927.24609375,576.171875
2.520250082015991,-692.3828125,-816.40625,-867.67578125,554.6875,-897.4609375
2.524156332015991,703.125,560.05859375,-1000.0,-852.5390625,-330.56640625
2.528062582015991,-873.53515625,-834.9609375,-412.109375,697.75390625,-1000.0
2.531968832015991,-29.78515625,63.96484375,554.6875,-779.78515625,-833.984375
2.5349998474121094,-1000.0,-1000.0,165.0390625,-1000.0,543.45703125
2.5389060974121094,-814.453125,-862.3046875,-856.93359375,485.3515625,-846.19140625
2.5428123474121094,575.1953125,522.94921875,-1000.0,-866.2109375,-115.234375
2.5467185974121094,-829.1015625,-819.3359375,-458.984375,790.0390625,-1000.0
2.5506248474121094,248.53515625,379.8828125,511.71875,-622.55859375,-878.41796875
2.5545310974121094,-1000.0,-985.3515625,356.4453125,-1000.0,437.5
2.5584373474121094,-880.859375,-906.73828125,-729.4921875,303.7109375,-803.7109375
2.5623435974121094,526.85546875,534.1796875,-1000.0,-857.91015625,408.69140625
2.5662498474121094,-825.1953125,-837.890625,-589.35546875,807.12890625,-926.26953125
2.5701560974121094,570.80078125,623.046875,416.9921875,-558.10546875,-1000.0
2.5740623474121094,-899.4140625,-822.75390625,450.68359375,-1000.0,312.01171875
2.5779685974121094,-932.12890625,-1000.0,-645.99609375,38.0859375,-806.640625
2.5799999237060547,554.6875,451.171875,-1000.0,-890.625,498.53515625
2.5839061737060547,-853.515625,-851.5625,-657.2265625,814.94140625,-880.859375
2.5878124237060547,701.171875,745.1171875,418.45703125,-548.828125,-1000.0
2.5917186737060547,-776.85546875,-672.36328125,588.8671875,-1000.0,286.1328125
2.5956249237060547,-1000.0,-1000.0,-587.890625,-278.3203125,-842.7734375
2.5995311737060547,488.28125,288.57421875,-1000.0,998.53515625,723.6328125
2.6034374237060547,-875.0,-856.4453125,-694.82421875,903.80859375,-624.0234375
2.6073436737060547,819.3359375,795.8984375,383.30078125,-469.23828125,-1000.0
2.6112499237060547,-583.984375,-568.84765625,626.46484375,-1000.0,-208.0078125
2.6151561737060547,-1000.0,-1000.0,-531.25,-557.6171875,-976.5625
2.6190624237060547,307.12890625,0.0,-1000.0,845.703125,820.80078125
2.6229686737060547,-865.72265625,-905.76171875,-830.078125,-957.51953125,-568.84765625
2.625999927520752,833.49609375,831.54296875,58.10546875,-308.59375,-1000.0
2.629906177520752,-531.25,-540.52734375,624.51171875,-1000.0,-609.375
2.633812427520752,-1000.0,-1000.0,-263.18359375,-704.58984375,865.234375
2.637718677520752,141.11328125,-253.90625,-980.95703125,685.546875,892.578125
2.641624927520752,-871.09375,-994.140625,-897.4609375,-862.79296875,-590.8203125
2.645531177520752,826.171875,885.7421875,-18.06640625,-61.5234375,-1000.0
2.649437427520752,-487.3046875,-482.91015625,671.38671875,-1000.0,-629.8828125
2.653343677520752,-1000.0,-1000.0,-10.7421875,-846.6796875,846.6796875
2.657249927520752,-232.421875,-604.4921875,-903.80859375,516.6015625,914.0625
2.661156177520752,999.51171875,815.91796875,-999.0234375,-812.01171875,-585.44921875
2.665062427520752,924.8046875,-975.09765625,-135.7421875,257.32421875,-1000.0
2.668968677520752,-346.19140625,-343.75,610.83984375,-1000.0,-818.84765625
2.6679999828338623,-1000.0,-1000.0,-62.98828125,-879.8828125,607.421875
2.6719062328338623,-566.40625,-736.81640625,-909.1796875,526.3671875,-931.15234375
2.6758124828338623,848.6328125,670.41015625,-1000.0,-818.84765625,-392.578125
2.6797187328338623,-958.0078125,-882.8125,-310.05859375,548.828125,-1000.0
2.6836249828338623,-249.0234375,-145.99609375,603.515625,-929.19921875,-836.42578125
2.6875312328338623,-1000.0,-1000.0,125.9765625,-927.24609375,555.17578125
2.6914374828338623,-710.9375,-834.9609375,-849.609375,554.6875,-865.72265625
2.6953437328338623,685.546875,540.52734375,-1000.0,-852.5390625,-217.28515625
2.6992499828338623,-860.3515625,-827.63671875,-444.3359375,698.73046875,-1000.0
2.7031562328338623,-11.23046875,137.20703125,513.18359375,-770.01953125,-848.6328125
2.7070624828338623,-1000.0,-1000.0,179.6875,-1000.0,532.71484375
2.7109687328338623,-848.6328125,-869.62890625,-841.796875,454.58984375,-836.42578125
2.7300000190734863,514.16015625,525.390625,-1000.0,-871.58203125,-57.12890625
2.7339062690734863,-813.4765625,-821.77734375,-480.46875,820.80078125,-1000.0
2.7378125190734863,373.046875,453.61328125,550.78125,-584.9609375,-916.50390625
2.7417187690734863,-999.0234375,-947.265625,371.09375,-1000.0,386.71875
2.7456250190734863,-898.4375,-930.6640625,-744.62890625,304.6875,-802.734375
2.7495312690734863,537.59765625,520.99609375,-1000.0,-856.93359375,436.5234375
2.7534375190734863,-837.890625,-841.796875,-595.21484375,804.6875,-901.85546875
2.7573437690734863,634.765625,666.9921875,412.59765625,-554.19921875,-1000.0
2.7612500190734863,-854.98046875,-781.25,497.0703125,-1000.0,284.1796875
2.7651562690734863,-946.2890625,-1000.0,-619.140625,3.90625,-808.10546875
2.7690625190734863,562.5,413.0859375,-1000.0,-896.484375,523.4375
2.7729687690734863,-863.76953125,-853.02734375,-709.9609375,813.96484375,-834.47265625
2.7739999294281006,737.3046875,762.20703125,312.01171875,-544.43359375,-1000.0
2.7779061794281006,-732.91015625,-644.53125,570.80078125,-1000.0,102.05078125
2.7818124294281006,-1000.0,-1000.0,-575.1953125,-379.8828125,-876.46484375
2.7857186794281006,489.74609375,250.9765625,-1000.0,953.61328125,712.890625
2.7896249294281006,-865.234375,-853.02734375,-720.703125,941.89453125,-622.0703125
2.7935311794281006,530.2734375,511.71875,329.1015625,-435.546875,-1000.0
2.7974374294281006,-708.49609375,-682.12890625,644.53125,-1000.0,-330.078125
2.8013436794281006,-1000.0,-1000.0,-430.17578125,-641.6015625,980.46875
2.8052499294281006,280.76171875,-103.02734375,-1000.0,784.1796875,834.9609375
2.8091561794281006,-849.609375,-918.9453125,-779.78515625,-939.453125,-586.9140625
2.8130624294281006,804.19921875,836.42578125,145.01953125,-317.87109375,-1000.0
2.8169686794281006,-554.6875,-530.76171875,658.203125,-1000.0,-657.2265625
2.819999933242798,-1000.0,-1000.0,-212.40234375,-749.51171875,834.9609375
2.823906183242798,3.90625,-428.22265625,-962.40234375,631.34765625,905.76171875
2.827812433242798,-896.97265625,938.4765625,-946.77734375,-847.65625,-596.6796875
2.831718683242798,812.98828125,926.7578125,-115.234375,-32.2265625,-1000.0
2.835624933242798,-544.43359375,-474.12109375,639.16015625,-1000.0,-702.63671875
2.839531183242798,-1000.0,-1000.0,-62.98828125,-845.21484375,780.76171875
2.843437433242798,-375.48828125,-647.4609375,-919.43359375,512.6953125,944.82421875
2.847343683242798,941.89453125,778.80859375,-1000.0,-809.5703125,-570.3125
2.851249933242798,969.23828125,-950.68359375,-164.55078125,358.88671875,-1000.0
2.855156183242798,-372.0703125,-318.359375,633.7890625,-1000.0,-824.70703125
2.859062433242798,-1000.0,-1000.0,-23.4375,-894.53125,584.9609375
2.862968683242798,-626.46484375,-770.5078125,-899.90234375,536.1328125,-906.73828125
2.878000020980835,777.83203125,623.046875,-1000.0,-834.9609375,-334.47265625
2.881906270980835,-908.203125,-856.93359375,-327.63671875,631.8359375,-1000.0
2.885812520980835,-210.9375,-95.21484375,560.05859375,-865.72265625,-849.12109375
2.889718770980835,-1000.0,-1000.0,93.26171875,-945.80078125,539.55078125
2.893625020980835,-644.53125,-745.60546875,-858.88671875,564.94140625,-851.5625
2.897531270980835,671.38671875,560.546875,-1000.0,-866.69921875,-199.70703125
2.901437520980835,-861.328125,-836.9140625,-418.9453125,752.9296875,-1000.0
2.905343770980835,104.4921875,231.4453125,539.0625,-693.84765625,-844.7265625
2.909250020980835,-1000.0,-1000.0,352.5390625,-1000.0,523.92578125
2.913156270980835,-864.2578125,-879.8828125,-758.7890625,398.92578125,-826.171875
2.917062520980835,520.99609375,529.296875,-1000.0,-864.2578125,21.97265625
2.920968770980835,-805.17578125,-816.40625,-494.62890625,813.4765625,-1000.0
2.9110000133514404,381.34765625,506.34765625,511.23046875,-570.80078125,-947.75390625
2.9149062633514404,-993.1640625,-911.1328125,388.671875,-1000.0,352.05078125
2.9188125133514404,-705.078125,-758.30078125,-729.98046875,205.078125,-800.29296875
2.9227187633514404,613.28125,583.0078125,-1000.0,-857.421875,443.359375
2.9266250133514404,-869.62890625,-879.39453125,-633.30078125,803.7109375,-895.01953125
2.9305312633514404,646.97265625,709.47265625,409.66796875,-549.31640625,-1000.0
2.9344375133514404,-871.09375,-752.44140625,528.80859375,-1000.0,249.51171875
2.9383437633514404,-945.80078125,-1000.0,-603.02734375,-120.1171875,-821.77734375
2.9422500133514404,565.4296875,376.46484375,-1000.0,-931.15234375,592.7734375
2.9461562633514404,-870.1171875,-854.98046875,-718.75,829.58984375,-787.109375
2.9500625133514404,764.16015625,780.2734375,269.04296875,-552.24609375,-1000.0
2.9539687633514404,-681.640625,-611.81640625,615.234375,-1000.0,118.65234375
2.953000068664551,-1000.0,-1000.0,-455.56640625,-409.66796875,-868.65234375
2.956906318664551,398.92578125,172.36328125,-1000.0,929.19921875,718.75
2.960812568664551,-865.234375,-870.1171875,-781.73828125,973.6328125,-604.98046875
2.964718818664551,813.96484375,812.01171875,206.0546875,-389.16015625,-1000.0
2.968625068664551,-573.2421875,-554.19921875,663.0859375,-1000.0,-470.21484375
2.972531318664551,-1000.0,-1000.0,-278.80859375,-634.765625,937.98828125
2.976437568664551,218.26171875,-80.56640625,-1000.0,769.53125,771.97265625
2.980343818664551,-861.328125,-924.8046875,-791.015625,-905.2734375,-617.67578125
2.984250068664551,812.98828125,836.9140625,171.38671875,-220.21484375,-1000.0
2.988156318664551,-533.69140625,-518.06640625,646.97265625,-1000.0,-691.40625
2.992062568664551,-1000.0,-1000.0,-198.73046875,-770.01953125,815.91796875
2.995968818664551,-87.890625,-500.0,-945.3125,597.65625,914.0625
3.0,-935.05859375,895.5078125,-971.6796875,-829.1015625,-597.16796875
3.00390625,860.3515625,959.9609375,-168.9453125,124.0234375,-1000.0
3.0078125,-493.1640625,-441.89453125,642.08984375,-1000.0,-715.33203125
3.01171875,-1000.0,-1000.0,-79.1015625,-864.2578125,754.39453125
3.015625,-377.44140625,-676.26953125,-935.546875,520.5078125,982.91015625
3.01953125,940.4296875,743.1640625,-996.09375,-813.96484375,-512.6953125
3.0234375,972.65625,-925.78125,-194.3359375,439.94140625,-1000.0
3.02734375,-354.98046875,-265.13671875,652.83203125,-977.05078125,-833.984375
3.03125,-1000.0,-1000.0,23.4375,-908.69140625,570.3125
3.03515625,-638.18359375,-797.36328125,-887.20703125,542.48046875,-895.5078125
3.0390625,771.484375,587.890625,-1000.0,-835.44921875,-309.08203125
3.04296875,-906.73828125,-848.14453125,-378.41796875,627.44140625,-1000.0
3.0429999828338623,-220.21484375,-21.97265625,532.2265625,-854.00390625,-848.14453125
3.0469062328338623,-1000.0,-1000.0,124.0234375,-981.4453125,537.59765625
3.0508124828338623,-772.94921875,-854.00390625,-863.76953125,510.25390625,-851.5625
3.0547187328338623,600.09765625,520.5078125,-1000.0,-862.3046875,-146.484375
3.0586249828338623,-828.61328125,-817.87109375,-435.05859375,763.18359375,-1000.0
3.0625312328338623,65.4296875,304.19921875,534.1796875,-681.15234375,-854.4921875
3.0664374828338623,-1000.0,-1000.0,427.734375,-1000.0,513.671875
3.0703437328338623,-849.12109375,-890.13671875,-708.984375,388.18359375,-820.80078125
3.0742499828338623,511.23046875,534.66796875,-1000.0,-863.76953125,96.19140625
3.0781562328338623,-817.87109375,-831.54296875,-534.66796875,813.96484375,-1000.0
3.0820624828338623,560.546875,580.078125,474.609375,-571.2890625,-973.14453125
3.0859687328338623,-916.015625,-863.76953125,413.57421875,-1000.0,323.2421875
3.1050000190734863,-930.17578125,-988.28125,-719.23828125,205.56640625,-798.33984375
3.1089062690734863,553.7109375,477.05078125,-1000.0,-856.93359375,465.8203125
3.1128125190734863,-851.5625,-849.609375,-569.82421875,799.31640625,-866.2109375
3.1167187690734863,687.01171875,724.12109375,402.34375,-542.96875,-1000.0
3.1206250190734863,-802.24609375,-706.0546875,491.2109375,-1000.0,114.2578125
3.1245312690734863,-986.81640625,-1000.0,-602.05078125,-189.94140625,-849.12109375
3.1284375190734863,529.78515625,332.51953125,-1000.0,-964.84375,693.359375
3.1323437690734863,-873.53515625,-856.93359375,-741.69921875,875.0,-710.9375
3.1362500190734863,791.9921875,793.9453125,238.28125,-485.83984375,-1000.0
3.1401562690734863,-645.99609375,-583.0078125,620.1171875,-1000.0,-15.625
3.1440625190734863,-1000.0,-1000.0,-433.59375,-562.98828125,-902.34375
3.1479687690734863,402.34375,86.42578125,-1000.0,856.4453125,735.83984375
3.1480000019073486,-870.60546875,-886.71875,-768.5546875,-985.3515625,-592.7734375
3.1519062519073486,832.51953125,827.1484375,223.14453125,-372.0703125,-1000.0
3.1558125019073486,-541.015625,-549.8046875,631.34765625,-1000.0,-554.6875
3.1597187519073486,-1000.0,-1000.0,-326.171875,-706.54296875,895.99609375
3.1636250019073486,204.58984375,-39.55078125,-973.6328125,698.2421875,690.91796875
3.1675312519073486,-856.93359375,-897.94921875,-815.4296875,-986.81640625,-662.59765625
3.1714375019073486,798.828125,837.40234375,42.48046875,-263.18359375,-1000.0
3.1753437519073486,-542.96875,-488.28125,634.765625,-1000.0,-726.07421875
3.1792500019073486,-1000.0,-1000.0,-170.41015625,-817.3828125,783.203125
3.1831562519073486,-188.4765625,-562.98828125,-930.17578125,541.9921875,945.80078125
3.1870625019073486,-970.703125,853.515625,-979.00390625,-816.89453125,-564.94140625
3.1909687519073486,901.85546875,-996.58203125,-204.58984375,164.0625,-1000.0
3.194999933242798,-474.609375,-409.66796875,625.9765625,-1000.0,-751.953125
3.198906183242798,-1000.0,-1000.0,-66.40625,-865.234375,702.63671875
3.202812433242798,-266.6015625,-513.18359375,-925.29296875,519.04296875,811.03515625
3.206718683242798,966.30859375,779.296875,-1000.0,-816.89453125,-562.98828125
3.210624933242798,992.1875,-935.05859375,-260.25390625,548.828125,-1000.0
3.214531183242798,-247.0703125,-193.84765625,627.9296875,-929.19921875,-845.703125
3.218437433242798,-1000.0,-1000.0,99.12109375,-927.24609375,574.70703125
3.222343683242798,-691.89453125,-816.40625,-874.0234375,554.6875,-884.27734375
3.226249933242798,702.1484375,560.05859375,-1000.0,-853.02734375,-277.34375
3.230156183242798,-873.046875,-834.47265625,-384.765625,701.66015625,-1000.0
3.234062433242798,-7.32421875,66.89453125,520.5078125,-776.85546875,-855.95703125
3.237968683242798,-1000.0,-1000.0,154.296875,-1000.0,521.484375
3.23799991607666,-826.171875,-867.67578125,-843.75,485.83984375,-842.7734375
3.24190616607666,576.66015625,529.296875,-1000.0,-857.91015625,-104.00390625
3.24581241607666,-831.0546875,-821.77734375,-515.13671875,784.66796875,-1000.0
3.24971866607666,179.19921875,282.71484375,478.515625,-617.1875,-871.09375
3.25362491607666,-1000.0,-1000.0,282.2265625,-938.96484375,474.609375
3.25753116607666,-869.62890625,-892.08984375,-774.90234375,379.39453125,-808.59375
3.26143741607666,520.5078125,524.90234375,-1000.0,-890.625,252.44140625
3.26534366607666,-821.2890625,-834.9609375,-578.61328125,820.80078125,-1000.0
3.26924991607666,564.453125,621.58203125,508.30078125,-560.05859375,-956.54296875
3.27315616607666,-907.71484375,-823.73046875,506.34765625,-1000.0,408.203125
3.27706241607666,-930.6640625,-1000.0,-697.265625,5.859375,-806.15234375
3.28096866607666,554.6875,449.21875,-1000.0,-896.97265625,502.44140625
3.2849998474121094,-853.515625,-851.5625,-671.875,817.87109375,-834.47265625
3.2889060974121094,701.171875,745.60546875,338.8671875,-549.31640625,-1000.0
3.2928123474121094,-776.85546875,-671.38671875,513.18359375,-1000.0,54.19921875
3.2967185974121094,-1000.0,-1000.0,-598.14453125,-302.734375,-868.65234375
3.3006248474121094,488.28125,287.109375,-1000.0,989.74609375,681.15234375
3.3045310974121094,-875.0,-856.4453125,-719.23828125,907.71484375,-686.03515625
3.3084373474121094,819.3359375,796.38671875,270.99609375,-471.19140625,-1000.0
3.3123435974121094,-583.984375,-567.87109375,616.69921875,-1000.0,-204.1015625
3.3162498474121094,-1000.0,-1000.0,-449.21875,-563.4765625,-953.125
3.3201560974121094,306.640625,-5.37109375,-1000.0,841.30859375,768.06640625
3.3240623474121094,-863.76953125,-906.25,-828.125,-956.54296875,-597.65625
3.3279685974121094,823.73046875,825.68359375,182.12890625,-308.59375,-1000.0
3.328000068664551,-532.2265625,-535.64453125,687.5,-1000.0,-613.76953125
3.331906318664551,-1000.0,-1000.0,-320.3125,-702.63671875,865.234375
3.335812568664551,49.8046875,-361.328125,-994.140625,683.10546875,886.23046875
3.339718818664551,-895.5078125,969.7265625,-896.484375,-859.375,-595.21484375
3.343625068664551,831.54296875,902.34375,-22.94921875,-37.109375,-1000.0
3.347531318664551,-511.23046875,-493.65234375,666.015625,-1000.0,-696.77734375
3.351437568664551,-1000.0,-1000.0,-113.28125,-849.609375,774.4140625
3.355343818664551,-248.046875,-608.88671875,-922.8515625,518.5546875,978.515625
3.359250068664551,998.046875,814.94140625,-990.72265625,-812.5,-506.8359375
3.363156318664551,919.921875,-977.5390625,-203.61328125,259.765625,-1000.0
3.367062568664551,-383.7890625,-355.95703125,626.953125,-1000.0,-809.08203125
3.370968818664551,-1000.0,-1000.0,-54.6875,-880.37109375,648.4375
3.375999927520752,-563.4765625,-737.79296875,-922.8515625,526.3671875,-978.02734375
3.379906177520752,847.65625,667.48046875,-1000.0,-818.84765625,-480.95703125
3.383812427520752,-958.0078125,-881.34765625,-279.296875,548.828125,-1000.0
3.387718677520752,-268.06640625,-145.5078125,593.75,-929.19921875,-845.703125
3.391624927520752,-1000.0,-1000.0,46.38671875,-927.24609375,538.57421875
3.395531177520752,-708.984375,-835.44921875,-889.6484375,554.19921875,-863.76953125
3.399437427520752,685.05859375,539.0625,-1000.0,-852.5390625,-223.6328125
3.403343677520752,-859.86328125,-827.1484375,-366.69921875,698.2421875,-1000.0
3.407249927520752,-30.2734375,140.625,530.2734375,-768.06640625,-865.234375
3.411156177520752,-1000.0,-1000.0,180.6640625,-1000.0,503.41796875
3.415062427520752,-845.21484375,-869.62890625,-836.42578125,445.80078125,-831.0546875
3.418968677520752,512.20703125,525.390625,-1000.0,-871.58203125,-37.109375
3.4200000762939453,-806.15234375,-821.77734375,-501.46484375,820.80078125,-1000.0
3.4239063262939453,360.3515625,454.58984375,495.1171875,-584.9609375,-905.2734375
3.4278125762939453,-1000.0,-947.265625,440.4296875,-1000.0,425.29296875
3.4317188262939453,-797.36328125,-931.640625,-717.28515625,304.6875,-798.828125
3.4356250762939453,570.80078125,520.5078125,-1000.0,-856.93359375,312.01171875
3.4395313262939453,-853.02734375,-841.796875,-562.01171875,804.6875,-961.9140625
3.4434375762939453,639.6484375,666.50390625,485.83984375,-554.19921875,-1000.0
3.4473438262939453,-861.81640625,-780.76171875,459.9609375,-1000.0,251.953125
3.4512500762939453,-945.80078125,-1000.0,-686.5234375,3.90625,-812.5
3.4551563262939453,562.98828125,410.15625,-1000.0,-896.484375,573.73046875
3.4590625762939453,-864.2578125,-853.02734375,-691.40625,813.4765625,-783.69140625
3.4629688262939453,739.74609375,763.18359375,314.94140625,-544.43359375,-1000.0
3.4809999465942383,-728.515625,-642.578125,527.34375,-1000.0,-25.390625
3.4849061965942383,-1000.0,-1000.0,-575.1953125,-379.8828125,-901.3671875
3.4888124465942383,469.7265625,235.83984375,-1000.0,953.125,779.78515625
3.4927186965942383,-873.53515625,-861.328125,-759.27734375,943.359375,-606.4453125
3.4966249465942383,819.3359375,801.7578125,198.2421875,-433.10546875,-1000.0
3.5005311965942383,-584.47265625,-557.6171875,662.109375,-1000.0,-299.8046875
3.5044374465942383,-1000.0,-1000.0,-194.82421875,-641.6015625,-989.74609375
3.5083436965942383,305.6640625,-79.58984375,-977.05078125,783.69140625,787.109375
3.5122499465942383,-859.86328125,-926.7578125,-870.60546875,-939.453125,-599.609375
3.5161561965942383,810.05859375,835.9375,97.65625,-318.359375,-1000.0
3.5200624465942383,-542.48046875,-530.2734375,639.6484375,-1000.0,-656.25
3.5239686965942383,-1000.0,-1000.0,-224.12109375,-755.37109375,837.40234375
3.5239999294281006,3.41796875,-434.08203125,-962.890625,624.51171875,907.2265625
3.5279061794281006,-896.97265625,935.546875,-944.3359375,-846.19140625,-594.7265625
3.5318124294281006,812.98828125,929.19921875,-119.62890625,-32.71484375,-1000.0
3.5357186794281006,-544.43359375,-471.19140625,640.625,-1000.0,-720.703125
3.5396249294281006,-1000.0,-1000.0,-58.10546875,-845.21484375,761.23046875
3.5435311794281006,-375.48828125,-648.4375,-919.921875,512.6953125,961.9140625
3.5474374294281006,942.3828125,776.85546875,-983.3984375,-809.5703125,-548.33984375
3.5513436794281006,968.75,-948.73046875,-199.21875,358.88671875,-1000.0
3.5552499294281006,-375.9765625,-311.03515625,630.37109375,-1000.0,-827.63671875
3.5591561794281006,-1000.0,-1000.0,130.859375,-894.53125,614.74609375
3.5630624294281006,-626.953125,-770.99609375,-852.5390625,536.1328125,-957.03125
3.5669686794281006,777.34375,624.0234375,-1000.0,-834.47265625,-451.171875
3.569000005722046,-912.59765625,-861.81640625,-312.5,631.8359375,-1000.0
3.572906255722046,-207.03125,-89.84375,574.21875,-865.72265625,-844.23828125
3.576812505722046,-1000.0,-1000.0,63.4765625,-945.80078125,535.64453125
3.580718755722046,-754.8828125,-853.02734375,-885.7421875,564.453125,-847.65625
3.584625005722046,641.11328125,535.15625,-1000.0,-866.69921875,-206.0546875
3.588531255722046,-843.75,-820.3125,-423.828125,752.9296875,-1000.0
3.592437505722046,-50.29296875,57.12890625,487.3046875,-694.3359375,-678.22265625
3.596343755722046,-1000.0,-1000.0,292.96875,-1000.0,558.59375
3.600250005722046,-838.8671875,-851.5625,-748.046875,398.4375,-855.46875
3.604156255722046,508.7890625,516.11328125,-1000.0,-864.2578125,39.55078125
3.608062505722046,-810.546875,-821.2890625,-565.4296875,813.96484375,-1000.0
3.611968755722046,406.25,520.5078125,459.47265625,-570.80078125,-937.01171875
3.61299991607666,-986.328125,-907.71484375,469.23828125,-1000.0,383.7890625
3.61690616607666,-903.3203125,-955.56640625,-705.078125,205.078125,-799.31640625
3.62081241607666,539.0625,507.32421875,-1000.0,-856.93359375,354.00390625
3.62471866607666,-836.42578125,-844.7265625,-606.4453125,802.734375,-945.3125
3.62862491607666,630.859375,689.94140625,472.16796875,-547.36328125,-1000.0
3.63253116607666,-865.72265625,-750.48828125,538.0859375,-1000.0,268.5546875
3.63643741607666,-945.80078125,-1000.0,-628.41796875,-132.32421875,-818.359375
3.64034366607666,565.4296875,376.953125,-1000.0,-937.5,615.72265625
3.64424991607666,-870.1171875,-854.98046875,-551.26953125,732.421875,-733.3984375
3.64815616607666,764.16015625,779.78515625,418.9453125,-586.9140625,-1000.0
3.65206241607666,-681.640625,-611.81640625,521.97265625,-1000.0,-147.94921875
3.65596866607666,-1000.0,-1000.0,-558.59375,-432.6171875,-933.10546875
3.6599998474121094,398.92578125,169.921875,-1000.0,925.29296875,742.67578125
3.6639060974121094,-865.234375,-870.1171875,-792.96875,976.07421875,-628.90625
3.6678123474121094,813.96484375,812.01171875,160.15625,-390.13671875,-1000.0
3.6717185974121094,-572.75390625,-554.19921875,630.859375,-1000.0,-462.40234375
3.6756248474121094,-1000.0,-1000.0,-395.5078125,-634.765625,949.21875
3.6795310974121094,215.8203125,-82.51953125,-1000.0,769.53125,866.2109375
3.6834373474121094,-860.3515625,-924.31640625,-833.984375,-905.2734375,-582.51953125
3.6873435974121094,809.08203125,836.42578125,74.21875,-220.21484375,-1000.0
3.6912498474121094,-538.0859375,-520.01953125,656.25,-1000.0,-680.17578125
3.6951560974121094,-1000.0,-1000.0,-200.68359375,-770.5078125,814.94140625
3.6990623474121094,-102.05078125,-503.41796875,-971.6796875,598.14453125,917.48046875
3.7029685974121094,-937.01171875,895.5078125,-883.7890625,-829.58984375,-597.65625
3.7039999961853027,856.93359375,958.0078125,-27.34375,119.62890625,-1000.0
3.7079062461853027,-504.8828125,-448.2421875,620.60546875,-1000.0,-782.71484375
3.7118124961853027,-1000.0,-1000.0,-103.515625,-864.74609375,680.6640625
3.7157187461853027,-380.859375,-677.734375,-924.8046875,521.484375,-996.09375
3.7196249961853027,936.03515625,741.69921875,-994.62890625,-812.98828125,-504.8828125
3.7235312461853027,975.5859375,-925.78125,-252.44140625,417.48046875,-1000.0
3.7274374961853027,-331.54296875,-268.06640625,611.81640625,-986.81640625,-832.03125
3.7313437461853027,-1000.0,-1000.0,132.8125,-904.78515625,593.26171875
3.7352499961853027,-642.08984375,-797.36328125,-844.23828125,540.52734375,-925.29296875
3.7391562461853027,772.94921875,587.40234375,-1000.0,-834.9609375,-388.671875
3.7430624961853027,-907.2265625,-848.14453125,-352.05078125,626.953125,-1000.0
3.7469687461853027,-220.21484375,-27.34375,550.78125,-853.515625,-841.30859375
3.7779998779296875,-1000.0,-1000.0,104.4921875,-983.88671875,530.2734375
3.7819061279296875,-767.578125,-853.02734375,-868.65234375,506.34765625,-845.703125
3.7858123779296875,593.75,520.01953125,-1000.0,-862.3046875,-119.62890625
3.7897186279296875,-826.66015625,-817.87109375,-467.7734375,762.6953125,-1000.0
3.7936248779296875,165.0390625,304.19921875,508.7890625,-680.6640625,-872.55859375
3.7975311279296875,-1000.0,-1000.0,370.1171875,-1000.0,457.03125
3.8014373779296875,-865.234375,-890.13671875,-733.3984375,384.765625,-803.22265625
3.8053436279296875,519.04296875,534.66796875,-1000.0,-863.76953125,317.3828125
3.8092498779296875,-818.359375,-831.0546875,-583.49609375,814.453125,-980.95703125
3.8131561279296875,552.24609375,577.63671875,435.546875,-571.77734375,-999.0234375
3.8170623779296875,-925.29296875,-865.72265625,459.9609375,-1000.0,358.3984375
3.8209686279296875,-928.22265625,-987.79296875,-697.75390625,205.078125,-799.8046875
3.7929999828338623,553.22265625,476.5625,-1000.0,-856.4453125,422.36328125
3.7969062328338623,-851.07421875,-849.12109375,-622.55859375,799.31640625,-898.4375
3.8008124828338623,687.01171875,722.65625,423.828125,-542.96875,-1000.0
3.8047187328338623,-801.7578125,-706.54296875,450.68359375,-1000.0,181.640625
3.8086249828338623,-988.28125,-1000.0,-629.8828125,-189.94140625,-834.9609375
3.8125312328338623,527.34375,330.56640625,-1000.0,-964.84375,595.703125
3.8164374828338623,-873.046875,-856.93359375,-658.203125,875.0,-698.2421875
3.8203437328338623,791.9921875,793.9453125,338.37890625,-485.3515625,-1000.0
3.8242499828338623,-645.99609375,-583.0078125,559.08203125,-1000.0,-242.1875
3.8281562328338623,-1000.0,-1000.0,-529.296875,-563.4765625,-964.35546875
3.8320624828338623,401.3671875,84.47265625,-1000.0,857.91015625,774.4140625
3.8359687328338623,-868.1640625,-886.23046875,-797.36328125,-988.28125,-608.88671875
3.8550000190734863,823.73046875,815.91796875,113.28125,-379.8828125,-1000.0
3.8589062690734863,-553.7109375,-541.015625,665.52734375,-1000.0,-527.83203125
3.8628125190734863,-1000.0,-1000.0,-144.53125,-712.40234375,914.0625
3.8667187690734863,204.58984375,-263.671875,-957.51953125,699.70703125,856.4453125
3.8706250190734863,-856.93359375,-989.2578125,-903.3203125,-887.20703125,-597.65625
3.8745312690734863,799.31640625,875.0,44.921875,-229.00390625,-1000.0
3.8784375190734863,-541.50390625,-508.7890625,617.67578125,-1000.0,-691.89453125
3.8823437690734863,-1000.0,-1000.0,-125.48828125,-809.08203125,803.22265625
3.8862500190734863,-187.98828125,-562.01171875,-930.17578125,540.0390625,926.7578125
3.8901562690734863,-971.19140625,853.02734375,-919.43359375,-817.3828125,-589.35546875
3.8940625190734863,891.11328125,995.60546875,-61.03515625,164.0625,-1000.0
3.8979687690734863,-457.03125,-391.11328125,612.3046875,-1000.0,-812.5
3.8980000019073486,-1000.0,-1000.0,-74.21875,-874.51171875,649.4140625
3.9019062519073486,-546.875,-706.0546875,-925.78125,529.296875,-995.1171875
3.9058125019073486,843.75,702.1484375,-1000.0,-815.4296875,-513.18359375
3.9097187519073486,864.2578125,941.89453125,-179.6875,352.5390625,-1000.0
3.9136250019073486,-343.75,-270.5078125,647.94921875,-1000.0,-832.03125
3.9175312519073486,-1000.0,-1000.0,91.796875,-894.04296875,567.3828125
3.9214375019073486,-710.44921875,-830.56640625,-858.88671875,538.57421875,-886.23046875
3.9253437519073486,702.1484375,563.4765625,-1000.0,-848.14453125,-287.109375
3.9292500019073486,-871.58203125,-834.47265625,-394.53125,701.66015625,-1000.0
3.9331562519073486,-13.671875,63.4765625,593.75,-776.85546875,-842.28515625
3.9370625019073486,-1000.0,-1000.0,314.94140625,-1000.0,532.71484375
3.9409687519073486,-821.2890625,-861.81640625,-794.921875,486.328125,-837.890625
3.944000005722046,567.3828125,522.4609375,-1000.0,-868.1640625,-74.21875
3.947906255722046,-828.125,-819.82421875,-490.234375,796.38671875,-1000.0
3.951812505722046,278.3203125,387.20703125,479.00390625,-614.2578125,-908.69140625
3.955718755722046,-1000.0,-981.4453125,329.1015625,-1000.0,415.0390625
3.959625005722046,-885.7421875,-909.1796875,-760.25390625,304.19921875,-800.29296875
3.963531255722046,529.78515625,532.71484375,-1000.0,-856.93359375,271.484375
3.967437505722046,-827.1484375,-839.35546875,-567.87109375,804.6875,-990.234375
3.971343755722046,574.70703125,629.8828125,420.8984375,-554.19921875,-1000.0
3.975250005722046,-894.53125,-816.40625,487.79296875,-1000.0,316.89453125
3.979156255722046,-933.10546875,-1000.0,-642.08984375,3.90625,-800.29296875
3.983062505722046,555.17578125,449.21875,-1000.0,-896.97265625,487.3046875
3.986968755722046,-853.515625,-851.5625,-638.18359375,817.87109375,-847.65625
3.989000082015991,700.68359375,746.58203125,407.2265625,-549.31640625,-1000.0
3.992906332015991,-776.3671875,-670.8984375,521.484375,-1000.0,44.921875
3.996812582015991,-1000.0,-1000.0,-621.09375,-306.640625,-878.90625
4.000718832015991,494.62890625,294.921875,-1000.0,989.2578125,733.3984375
4.004625082015991,-876.953125,-858.3984375,-656.25,908.203125,-631.34765625
4.008531332015991,719.7265625,696.2890625,363.76953125,-471.6796875,-1000.0
4.012437582015991,-617.67578125,-601.5625,613.76953125,-1000.0,-298.33984375
4.016343832015991,-1000.0,-1000.0,-458.0078125,-565.4296875,-992.1875
4.020250082015991,299.8046875,-14.6484375,-1000.0,839.84375,841.796875
4.024156332015991,-863.76953125,-904.78515625,-840.33203125,-956.54296875,-573.73046875
4.028062582015991,833.0078125,828.125,58.10546875,-309.08203125,-1000.0
4.031968832015991,-515.625,-530.76171875,654.78515625,-1000.0,-590.8203125
4.036999940872192,-1000.0,-1000.0,-240.72265625,-702.63671875,876.46484375
4.040906190872192,38.57421875,-366.69921875,-982.91015625,682.12890625,895.01953125
4.044812440872192,-897.94921875,967.28515625,-920.41015625,-853.515625,-588.8671875
4.048718690872192,833.984375,905.2734375,-33.203125,-38.57421875,-1000.0
4.052624940872192,-507.32421875,-489.2578125,645.01953125,-1000.0,-730.46875
4.056531190872192,-1000.0,-1000.0,-163.0859375,-750.0,760.25390625
4.060437440872192,-257.8125,-609.375,-936.03515625,551.7578125,947.265625
4.064343690872192,987.79296875,813.4765625,-958.0078125,-827.63671875,-577.1484375
4.068249940872192,931.15234375,-975.09765625,-205.078125,285.64453125,-1000.0
4.072156190872192,-332.03125,-348.14453125,596.6796875,-1000.0,-824.21875
4.076062440872192,-1000.0,-1000.0,-58.10546875,-883.30078125,619.140625
4.079968690872192,-569.3359375,-740.72265625,-912.59765625,527.83203125,-959.9609375
4.078000068664551,851.07421875,663.57421875,-1000.0,-820.3125,-457.03125
4.081906318664551,-958.984375,-879.8828125,-332.03125,555.17578125,-1000.0
4.085812568664551,-265.625,-135.7421875,586.42578125,-924.31640625,-839.35546875
4.089718818664551,-1000.0,-1000.0,145.01953125,-928.7109375,547.36328125
4.093625068664551,-709.47265625,-837.40234375,-859.86328125,555.17578125,-865.72265625
4.097531318664551,685.05859375,539.0625,-1000.0,-852.05078125,-222.65625
4.101437568664551,-859.86328125,-826.66015625,-385.25390625,696.77734375,-1000.0
4.105343818664551,-30.2734375,136.71875,600.5859375,-765.625,-845.21484375
4.109250068664551,-1000.0,-1000.0,331.0546875,-1000.0,529.296875
4.113156318664551,-845.21484375,-869.140625,-789.55078125,433.59375,-830.56640625
4.117062568664551,512.20703125,524.90234375,-1000.0,-870.1171875,-15.13671875
4.120968818664551,-811.5234375,-821.2890625,-506.8359375,820.3125,-1000.0
4.125,366.69921875,452.63671875,454.58984375,-584.47265625,-933.59375
4.12890625,-1000.0,-949.21875,358.88671875,-1000.0,387.20703125
4.1328125,-896.97265625,-931.15234375,-738.28125,297.8515625,-799.8046875
4.13671875,536.62109375,519.53125,-1000.0,-856.93359375,272.94921875
4.140625,-836.42578125,-840.8203125,-606.4453125,805.17578125,-983.3984375
4.14453125,630.37109375,663.0859375,430.17578125,-554.6875,-1000.0
4.1484375,-860.83984375,-783.69140625,523.4375,-1000.0,288.0859375
4.15234375,-945.80078125,-1000.0,-589.84375,3.90625,-805.17578125
4.15625,562.5,407.2265625,-1000.0,-896.97265625,505.859375
4.16015625,-864.74609375,-853.02734375,-685.05859375,813.96484375,-817.87109375
4.1640625,740.72265625,763.671875,375.9765625,-544.43359375,-1000.0
4.16796875,-725.09765625,-641.6015625,529.78515625,-1000.0,-42.48046875
4.167999982833862,-1000.0,-1000.0,-603.02734375,-379.39453125,-900.390625
4.171906232833862,461.9140625,232.421875,-1000.0,951.66015625,692.87109375
4.175812482833862,-873.046875,-861.81640625,-767.08984375,947.75390625,-652.34375
4.179718732833862,819.82421875,801.7578125,198.73046875,-424.8046875,-1000.0
4.183624982833862,-584.9609375,-557.12890625,647.4609375,-1000.0,-389.16015625
4.187531232833862,-1000.0,-1000.0,-346.6796875,-641.11328125,978.02734375
4.191437482833862,304.6875,-88.37890625,-1000.0,782.71484375,856.93359375
4.195343732833862,-857.421875,-928.7109375,-856.93359375,-936.03515625,-577.1484375
4.199249982833862,804.19921875,835.9375,56.15234375,-309.5703125,-1000.0
4.203156232833862,-554.6875,-533.203125,657.2265625,-1000.0,-633.30078125
4.207062482833862,-1000.0,-1000.0,-240.72265625,-763.18359375,849.609375
4.210968732833862,3.90625,-433.59375,-977.5390625,617.67578125,899.90234375
4.230000019073486,-897.4609375,935.546875,-951.171875,-844.23828125,-598.14453125
4.233906269073486,812.98828125,929.6875,-74.21875,-33.203125,-1000.0
4.237812519073486,-544.43359375,-470.21484375,680.17578125,-1000.0,-751.46484375
4.241718769073486,-1000.0,-1000.0,-146.97265625,-845.21484375,723.14453125
4.245625019073486,-375.9765625,-647.94921875,-956.0546875,512.6953125,980.46875
4.249531269073486,943.359375,776.85546875,-964.35546875,-809.08203125,-532.2265625
4.253437519073486,967.28515625,-948.2421875,-168.45703125,358.88671875,-1000.0
4.257343769073486,-386.71875,-312.98828125,608.88671875,-1000.0,-833.49609375
4.261250019073486,-1000.0,-1000.0,-64.453125,-894.53125,597.65625
4.265156269073486,-629.8828125,-770.99609375,-910.64453125,536.1328125,-936.5234375
4.269062519073486,774.4140625,622.55859375,-1000.0,-834.47265625,-414.55078125
4.272968769073486,-912.109375,-861.81640625,-359.86328125,631.8359375,-1000.0
4.273000001907349,-212.40234375,-85.9375,560.05859375,-865.72265625,-846.6796875
4.276906251907349,-1000.0,-1000.0,224.12109375,-945.80078125,540.52734375
4.280812501907349,-742.1875,-845.21484375,-815.91796875,565.4296875,-863.28125
4.284718751907349,636.71875,527.34375,-1000.0,-868.1640625,-219.23828125
4.288625001907349,-841.30859375,-820.80078125,-419.921875,758.7890625,-1000.0
4.292531251907349,87.890625,221.6796875,568.359375,-687.98828125,-863.76953125
4.296437501907349,-1000.0,-1000.0,333.0078125,-1000.0,491.69921875
4.300343751907349,-860.83984375,-879.39453125,-772.94921875,398.92578125,-822.75390625
4.304250001907349,520.01953125,529.296875,-1000.0,-864.2578125,44.921875
4.308156251907349,-815.91796875,-826.171875,-412.109375,813.96484375,-1000.0
4.312062501907349,411.62109375,523.4375,525.390625,-570.80078125,-953.61328125
4.315968751907349,-982.421875,-906.25,366.2109375,-1000.0,352.5390625
4.319000005722046,-904.296875,-955.56640625,-716.30859375,205.078125,-796.875
4.322906255722046,539.55078125,508.7890625,-1000.0,-856.93359375,401.3671875
4.326812505722046,-836.42578125,-846.6796875,-633.30078125,802.734375,-918.9453125
4.330718755722046,630.859375,695.3125,395.01953125,-547.36328125,-1000.0
4.334625005722046,-865.72265625,-745.60546875,524.90234375,-1000.0,225.5859375
4.338531255722046,-945.80078125,-1000.0,-618.1640625,-141.11328125,-824.21875
4.342437505722046,565.4296875,378.41796875,-1000.0,-937.01171875,629.39453125
4.346343755722046,-870.1171875,-855.46875,-720.21484375,831.54296875,-729.98046875
4.350250005722046,763.671875,780.76171875,334.47265625,-552.24609375,-1000.0
4.354156255722046,-681.640625,-611.81640625,592.28515625,-1000.0,-137.6953125
4.358062505722046,-1000.0,-1000.0,-579.58984375,-431.640625,-933.59375
4.361968755722046,398.92578125,176.7578125,-1000.0,919.43359375,740.72265625
4.36299991607666,-865.234375,-869.140625,-731.4453125,977.5390625,-632.32421875
4.36690616607666,814.453125,806.15234375,175.29296875,-390.625,-1000.0
4.37081241607666,-573.2421875,-547.8515625,475.5859375,-1000.0,-406.73828125
4.37471866607666,-1000.0,-1000.0,-364.74609375,-634.765625,960.44921875
4.37862491607666,219.23828125,-174.8046875,-967.28515625,769.53125,857.91015625
4.38253116607666,-857.91015625,-956.0546875,-859.86328125,-905.2734375,-581.0546875
4.38643741607666,804.19921875,852.05078125,72.75390625,-219.7265625,-1000.0
4.39034366607666,-551.7578125,-526.3671875,678.22265625,-1000.0,-666.015625
4.39424991607666,-1000.0,-1000.0,-61.5234375,-769.53125,826.66015625
4.39815616607666,-78.125,-497.55859375,-908.203125,596.6796875,910.64453125
4.40206241607666,-931.15234375,896.97265625,-986.81640625,-828.61328125,-600.5859375
4.40596866607666,855.95703125,959.9609375,-135.25390625,133.7890625,-1000.0
4.409999847412109,-502.9296875,-440.91796875,616.69921875,-1000.0,-788.0859375
4.413906097412109,-1000.0,-1000.0,-120.1171875,-865.72265625,683.59375
4.417812347412109,-375.0,-672.36328125,-937.01171875,521.484375,988.76953125
4.421718597412109,942.3828125,747.0703125,-992.67578125,-813.96484375,-534.66796875
4.425624847412109,972.16796875,-926.7578125,-260.25390625,437.5,-1000.0
4.429531097412109,-375.48828125,-265.625,602.5390625,-978.02734375,-836.9140625
4.433437347412109,-1000.0,-1000.0,40.0390625,-908.203125,583.984375
4.437343597412109,-635.25390625,-795.8984375,-884.27734375,541.9921875,-920.8984375
4.441249847412109,769.53125,590.8203125,-1000.0,-835.9375,-381.34765625
4.445156097412109,-906.25,-848.14453125,-387.6953125,627.44140625,-1000.0
4.449062347412109,-220.21484375,-31.25,528.80859375,-854.4921875,-844.7265625
4.452968597412109,-1000.0,-1000.0,225.5859375,-979.4921875,535.64453125
4.453000068664551,-767.578125,-852.05078125,-773.92578125,512.6953125,-852.05078125
4.456906318664551,593.75,519.53125,-1000.0,-862.3046875,-170.41015625
4.460812568664551,-826.66015625,-817.3828125,-469.7265625,763.18359375,-1000.0
4.464718818664551,165.0390625,302.734375,543.45703125,-679.6875,-876.953125
4.468625068664551,-1000.0,-1000.0,358.3984375,-1000.0,459.9609375
4.472531318664551,-865.234375,-889.6484375,-764.16015625,389.6484375,-808.10546875
4.476437568664551,518.5546875,534.1796875,-1000.0,-865.234375,158.203125
4.480343818664551,-817.3828125,-830.078125,-339.84375,714.84375,-1000.0
4.484250068664551,548.33984375,573.2421875,586.9140625,-605.46875,-988.28125
4.488156318664551,-929.19921875,-871.58203125,377.44140625,-1000.0,316.89453125
4.492062568664551,-927.734375,-986.328125,-701.171875,197.265625,-795.41015625
4.495968818664551,553.22265625,478.02734375,-1000.0,-854.00390625,416.015625
4.5,-851.5625,-849.609375,-663.0859375,799.31640625,-904.78515625
4.50390625,687.98828125,722.65625,370.1171875,-542.96875,-1000.0
4.5078125,-802.734375,-708.0078125,518.5546875,-1000.0,166.9921875
4.51171875,-984.375,-1000.0,-618.65234375,-189.453125,-837.890625
4.515625,533.69140625,335.44921875,-1000.0,-965.8203125,617.67578125
4.51953125,-874.0234375,-856.93359375,-714.84375,878.41796875,-748.53515625
4.5234375,793.45703125,793.9453125,339.35546875,-479.98046875,-1000.0
4.52734375,-644.04296875,-583.0078125,626.953125,-1000.0,-19.53125
4.53125,-1000.0,-1000.0,-553.22265625,-563.4765625,-914.0625
4.53515625,399.90234375,88.8671875,-1000.0,856.93359375,747.0703125
4.5390625,-864.2578125,-884.765625,-763.671875,-986.328125,-587.890625
4.54296875,813.4765625,813.4765625,134.765625,-374.51171875,-1000.0
4.542999982833862,-570.80078125,-543.45703125,604.4921875,-1000.0,-565.4296875
4.546906232833862,-1000.0,-1000.0,-354.00390625,-712.40234375,895.5078125
4.550812482833862,204.58984375,-263.18359375,-1000.0,700.1953125,883.7890625
4.554718732833862,-856.93359375,-987.3046875,-859.375,-887.20703125,-590.8203125
4.558624982833862,798.828125,871.09375,15.625,-229.00390625,-1000.0
4.562531232833862,-542.96875,-517.578125,630.37109375,-1000.0,-689.453125
4.566437482833862,-1000.0,-1000.0,-47.36328125,-807.6171875,807.6171875
4.570343732833862,-188.4765625,-558.59375,-894.04296875,541.50390625,916.9921875
4.574249982833862,-970.703125,857.91015625,-1000.0,-817.3828125,-602.5390625
4.578156232833862,889.16015625,990.234375,-152.83203125,164.0625,-1000.0
4.582062482833862,-462.890625,-409.1796875,619.62890625,-1000.0,-802.24609375
4.585968732833862,-1000.0,-1000.0,-66.89453125,-865.234375,648.92578125
4.605999946594238,-558.10546875,-707.51953125,-931.640625,519.04296875,-975.09765625
4.609906196594238,845.703125,704.58984375,-986.81640625,-816.40625,-474.609375
4.613812446594238,-959.47265625,-902.34375,-157.71484375,548.828125,-1000.0
4.617718696594238,-311.03515625,-217.7734375,608.3984375,-929.19921875,-840.33203125
4.621624946594238,-1000.0,-1000.0,4.8828125,-927.24609375,557.6171875
4.625531196594238,-690.4296875,-815.91796875,-883.7890625,554.6875,-880.859375
4.629437446594238,701.66015625,559.5703125,-1000.0,-853.515625,-278.3203125
4.633343696594238,-871.58203125,-834.9609375,-409.66796875,701.171875,-1000.0
4.637249946594238,-77.63671875,59.5703125,517.08984375,-776.85546875,-847.65625
4.641156196594238,-1000.0,-1000.0,266.6015625,-1000.0,534.1796875
4.645062446594238,-807.6171875,-861.328125,-767.08984375,486.81640625,-844.7265625
4.648968696594238,567.3828125,522.4609375,-1000.0,-858.88671875,-111.81640625
4.648000001907349,-823.2421875,-819.3359375,-484.375,789.0625,-1000.0
4.651906251907349,243.1640625,378.41796875,518.06640625,-611.328125,-901.3671875
4.655812501907349,-1000.0,-986.328125,233.3984375,-939.94140625,418.9453125
4.659718751907349,-878.41796875,-906.25,-794.43359375,379.39453125,-799.8046875
4.663625001907349,524.4140625,533.69140625,-1000.0,-891.11328125,260.7421875
4.667531251907349,-818.84765625,-836.9140625,-534.1796875,821.2890625,-991.2109375
4.671437501907349,548.33984375,620.1171875,476.07421875,-560.546875,-1000.0
4.675343751907349,-929.19921875,-826.171875,437.5,-1000.0,300.78125
4.679250001907349,-927.24609375,-1000.0,-696.77734375,13.671875,-819.82421875
4.683156251907349,554.19921875,450.1953125,-1000.0,-895.01953125,659.66796875
4.687062501907349,-854.00390625,-851.5625,-611.81640625,816.40625,-737.79296875
4.690968751907349,701.171875,745.1171875,357.91015625,-548.33984375,-1000.0
4.693000078201294,-776.85546875,-672.8515625,525.390625,-1000.0,108.88671875
4.696906328201294,-1000.0,-1000.0,-604.4921875,-307.6171875,-857.91015625
4.700812578201294,488.28125,290.0390625,-1000.0,988.76953125,622.0703125
4.704718828201294,-875.48828125,-856.4453125,-750.48828125,908.69140625,-707.51953125
4.708625078201294,819.3359375,795.8984375,253.90625,-471.6796875,-1000.0
4.712531328201294,-583.984375,-569.82421875,630.37109375,-1000.0,-299.31640625
4.716437578201294,-1000.0,-1000.0,-441.89453125,-558.10546875,-985.3515625
4.720343828201294,305.6640625,4.39453125,-1000.0,845.703125,834.9609375
4.724250078201294,-862.3046875,-904.296875,-770.5078125,-957.51953125,-579.1015625
4.728156328201294,819.82421875,824.70703125,198.73046875,-308.59375,-1000.0
4.732062578201294,-541.9921875,-536.1328125,639.6484375,-1000.0,-610.3515625
4.735968828201294,-1000.0,-1000.0,-300.29296875,-704.1015625,864.2578125
4.73799991607666,62.98828125,-354.00390625,-979.00390625,684.5703125,895.99609375
4.74190616607666,-887.20703125,972.65625,-906.73828125,-861.81640625,-591.30859375
4.74581241607666,816.89453125,900.390625,-78.61328125,-53.7109375,-1000.0
4.74971866607666,-543.45703125,-495.60546875,643.06640625,-1000.0,-709.9609375
4.75362491607666,-1000.0,-1000.0,-6.8359375,-847.16796875,779.78515625
4.75753116607666,-229.98046875,-605.46875,-897.4609375,517.08984375,941.89453125
4.76143741607666,-989.2578125,818.359375,-991.69921875,-812.01171875,-571.2890625
4.76534366607666,907.2265625,-980.95703125,-137.20703125,267.578125,-1000.0
4.76924991607666,-443.84765625,-366.69921875,662.109375,-1000.0,-756.8359375
4.77315616607666,-1000.0,-1000.0,-37.109375,-881.8359375,706.54296875
4.77706241607666,-558.59375,-734.375,-922.8515625,526.85546875,-999.51171875
4.78096866607666,846.19140625,671.38671875,-1000.0,-818.84765625,-495.60546875
4.784999847412109,-958.49609375,-883.30078125,-324.21875,548.828125,-1000.0
4.788906097412109,-308.59375,-157.71484375,544.43359375,-929.19921875,-848.14453125
4.792812347412109,-1000.0,-1000.0,55.17578125,-927.24609375,543.45703125
4.796718597412109,-702.63671875,-833.49609375,-888.18359375,554.19921875,-875.9765625
4.800624847412109,681.640625,539.55078125,-1000.0,-852.5390625,-263.671875
4.804531097412109,-858.88671875,-826.171875,-393.06640625,698.2421875,-1000.0
4.808437347412109,-30.2734375,129.39453125,556.640625,-768.5546875,-852.5390625
4.812343597412109,-1000.0,-1000.0,291.015625,-1000.0,515.625
4.816249847412109,-845.21484375,-868.1640625,-775.87890625,447.265625,-833.49609375
4.820156097412109,512.20703125,524.4140625,-1000.0,-871.09375,-34.66796875
4.824062347412109,-811.5234375,-820.80078125,-491.2109375,820.80078125,-1000.0
4.827968597412109,365.234375,447.75390625,532.2265625,-584.9609375,-880.859375
4.828999996185303,-1000.0,-952.63671875,445.3125,-1000.0,472.65625
4.832906246185303,-896.484375,-928.7109375,-735.83984375,304.6875,-806.15234375
4.836812496185303,535.64453125,521.97265625,-1000.0,-856.93359375,277.34375
4.840718746185303,-833.0078125,-840.8203125,-591.796875,804.6875,-980.95703125
4.844624996185303,616.69921875,656.25,435.05859375,-554.19921875,-1000.0
4.848531246185303,-876.953125,-789.55078125,514.16015625,-1000.0,297.8515625
4.852437496185303,-942.3828125,-1000.0,-644.53125,3.90625,-826.171875
4.856343746185303,562.01171875,413.57421875,-1000.0,-896.484375,682.6171875
4.860249996185303,-863.76953125,-853.02734375,-662.109375,813.4765625,-692.3828125
4.864156246185303,736.328125,763.18359375,308.59375,-544.43359375,-1000.0
4.868062496185303,-735.83984375,-644.04296875,540.0390625,-1000.0,4.39453125
4.871968746185303,-1000.0,-1000.0,-576.66015625,-379.8828125,-892.08984375
4.9029998779296875,480.95703125,241.69921875,-1000.0,953.61328125,729.00390625
4.9069061279296875,-874.0234375,-860.83984375,-776.85546875,942.3828125,-623.046875
4.9108123779296875,819.3359375,800.78125,229.98046875,-435.05859375,-1000.0
4.9147186279296875,-583.984375,-558.10546875,612.79296875,-1000.0,-446.77734375
4.9186248779296875,-1000.0,-1000.0,-493.65234375,-641.6015625,953.61328125
4.9225311279296875,304.19921875,-77.1484375,-1000.0,783.69140625,859.86328125
4.9264373779296875,-857.421875,-924.31640625,-769.53125,-939.453125,-587.40234375
4.9303436279296875,804.19921875,830.56640625,206.54296875,-318.359375,-1000.0
4.9342498779296875,-554.6875,-539.0625,651.85546875,-1000.0,-651.85546875
4.9381561279296875,-1000.0,-1000.0,-260.25390625,-756.8359375,837.40234375
4.9420623779296875,3.90625,-428.22265625,-965.33203125,623.53515625,904.296875
4.9459686279296875,-896.97265625,939.453125,-941.40625,-845.703125,-597.65625
4.918999910354614,812.98828125,924.31640625,-122.55859375,-32.71484375,-1000.0
4.922906160354614,-544.43359375,-480.46875,627.44140625,-1000.0,-741.69921875
4.926812410354614,-1000.0,-1000.0,-64.453125,-845.21484375,736.81640625
4.930718660354614,-375.48828125,-646.484375,-911.62109375,512.20703125,975.5859375
4.934624910354614,941.89453125,780.2734375,-998.046875,-809.08203125,-530.2734375
4.938531160354614,969.23828125,-951.66015625,-200.68359375,358.88671875,-1000.0
4.942437410354614,-373.046875,-323.2421875,658.69140625,-1000.0,-767.578125
4.946343660354614,-1000.0,-1000.0,-41.015625,-894.53125,679.6875
4.950249910354614,-627.44140625,-769.04296875,-930.17578125,536.1328125,-964.84375
4.954156160354614,780.2734375,624.51171875,-1000.0,-834.9609375,-437.5
4.958062410354614,-914.55078125,-862.79296875,-335.9375,631.8359375,-1000.0
4.961968660354614,-234.375,-94.7265625,548.33984375,-865.72265625,-834.9609375
4.980000019073486,-1000.0,-1000.0,62.98828125,-945.80078125,520.99609375
4.983906269073486,-738.28125,-844.23828125,-886.23046875,564.94140625,-835.9375
4.987812519073486,638.18359375,527.34375,-1000.0,-866.69921875,-47.8515625
4.991718769073486,-842.28515625,-820.3125,-460.44921875,752.9296875,-1000.0
4.995625019073486,68.84765625,210.9375,507.8125,-694.3359375,-880.859375
4.999531269073486,-1000.0,-1000.0,331.54296875,-1000.0,505.859375
5.003437519073486,-858.88671875,-877.9296875,-739.74609375,398.92578125,-822.265625
5.007343769073486,518.5546875,528.80859375,-1000.0,-864.2578125,53.7109375
5.011250019073486,-812.01171875,-825.1953125,-553.7109375,813.96484375,-1000.0
5.015156269073486,378.90625,511.23046875,489.74609375,-570.80078125,-929.6875
5.019062519073486,-1000.0,-914.0625,396.97265625,-1000.0,403.80859375
5.022968769073486,-898.4375,-953.125,-747.55859375,205.078125,-800.29296875
5.023000001907349,536.62109375,507.8125,-1000.0,-856.93359375,338.8671875
5.026906251907349,-835.9375,-846.6796875,-593.26171875,802.734375,-936.5234375
5.030812501907349,631.34765625,694.3359375,404.296875,-548.33984375,-1000.0
5.034718751907349,-865.72265625,-745.60546875,482.421875,-1000.0,183.10546875
5.038625001907349,-945.80078125,-1000.0,-631.34765625,-133.7890625,-827.1484375
5.042531251907349,565.4296875,377.44140625,-1000.0,-934.5703125,643.06640625
5.046437501907349,-870.1171875,-854.98046875,-672.8515625,832.03125,-733.88671875
5.050343751907349,764.16015625,780.76171875,346.19140625,-553.7109375,-1000.0
5.054250001907349,-681.640625,-612.3046875,592.28515625,-1000.0,-81.0546875
5.058156251907349,-1000.0,-1000.0,-434.5703125,-395.5078125,-914.0625
5.062062501907349,398.92578125,177.24609375,-1000.0,935.546875,769.04296875
5.065968751907349,-865.234375,-869.62890625,-817.87109375,971.19140625,-610.3515625
5.069000005722046,814.453125,806.640625,171.38671875,-388.18359375,-1000.0
5.072906255722046,-573.73046875,-548.33984375,617.67578125,-1000.0,-513.671875
5.076812505722046,-1000.0,-1000.0,-414.0625,-634.765625,918.9453125
5.080718755722046,222.16796875,-167.96875,-1000.0,769.53125,834.47265625
5.084625005722046,-857.91015625,-954.1015625,-838.37890625,-905.2734375,-606.4453125
5.088531255722046,804.19921875,851.07421875,92.7734375,-220.21484375,-1000.0
5.092437505722046,-551.26953125,-526.3671875,675.78125,-1000.0,-662.109375
5.096343755722046,-1000.0,-1000.0,-205.078125,-770.01953125,823.2421875
5.100250005722046,-80.56640625,-500.0,-950.68359375,597.65625,934.5703125
5.104156255722046,-931.15234375,896.484375,-930.6640625,-829.1015625,-563.4765625
5.108062505722046,853.515625,958.49609375,-165.0390625,124.51171875,-1000.0
5.111968755722046,-506.8359375,-444.3359375,613.28125,-1000.0,-783.203125
5.11299991607666,-1000.0,-1000.0,15.13671875,-870.1171875,693.359375
5.11690616607666,-369.62890625,-668.45703125,-892.08984375,527.83203125,979.4921875
5.12081241607666,941.89453125,744.62890625,-1000.0,-815.4296875,-543.45703125
5.12471866607666,869.140625,992.1875,-172.8515625,327.63671875,-1000.0
5.12862491607666,-416.9921875,-294.43359375,681.15234375,-1000.0,-785.15625
5.13253116607666,-1000.0,-1000.0,63.96484375,-890.625,630.859375
5.13643741607666,-643.06640625,-801.7578125,-888.671875,533.203125,-910.15625
5.14034366607666,771.97265625,593.75,-1000.0,-832.51953125,-333.0078125
5.14424991607666,-905.76171875,-849.12109375,-247.0703125,627.44140625,-1000.0
5.14815616607666,-220.21484375,-31.25,598.14453125,-854.4921875,-846.6796875
5.15206241607666,-1000.0,-1000.0,77.63671875,-980.46875,538.0859375
5.15596866607666,-767.578125,-852.5390625,-864.74609375,511.71875,-852.5390625
5.159999847412109,593.75,520.01953125,-1000.0,-862.3046875,-175.29296875
5.163906097412109,-826.66015625,-817.3828125,-493.65234375,763.671875,-1000.0
5.167812347412109,165.0390625,295.8984375,483.3984375,-681.640625,-882.8125
5.171718597412109,-1000.0,-1000.0,355.46875,-1000.0,444.82421875
5.175624847412109,-865.234375,-889.16015625,-737.79296875,391.11328125,-806.15234375
5.179531097412109,518.5546875,533.69140625,-1000.0,-863.76953125,183.10546875
5.183437347412109,-817.3828125,-829.1015625,-514.16015625,813.96484375,-1000.0
5.187343597412109,548.33984375,566.89453125,476.5625,-571.2890625,-985.3515625
5.191249847412109,-929.19921875,-876.46484375,427.24609375,-1000.0,333.49609375
5.195156097412109,-927.734375,-982.91015625,-709.47265625,205.56640625,-796.875
5.199062347412109,552.734375,480.46875,-1000.0,-856.4453125,422.36328125
5.202968597412109,-850.5859375,-849.12109375,-557.12890625,799.31640625,-895.5078125
5.203999996185303,683.10546875,720.21484375,424.31640625,-542.96875,-1000.0
5.207906246185303,-810.546875,-711.42578125,494.62890625,-1000.0,132.8125
5.211812496185303,-975.09765625,-1000.0,-610.83984375,-190.4296875,-843.75
5.215718746185303,544.921875,339.84375,-1000.0,-963.8671875,687.5
5.219624996185303,-873.53515625,-856.93359375,-688.4765625,872.0703125,-693.84765625
5.223531246185303,785.64453125,792.96875,314.453125,-490.234375,-1000.0
5.227437496185303,-653.80859375,-584.9609375,611.328125,-1000.0,-162.109375
5.231343746185303,-1000.0,-1000.0,-413.0859375,-563.96484375,-941.40625
5.235249996185303,399.90234375,94.23828125,-1000.0,858.88671875,755.859375
5.239156246185303,-864.2578125,-883.30078125,-835.9375,-990.234375,-612.79296875
5.243062496185303,812.98828125,812.5,133.7890625,-384.27734375,-1000.0
5.246968746185303,-571.2890625,-545.41015625,611.328125,-1000.0,-564.453125
5.250999927520752,-1000.0,-1000.0,-417.96875,-712.40234375,895.99609375
5.254906177520752,204.58984375,-254.39453125,-1000.0,699.70703125,862.3046875
5.258812427520752,-856.93359375,-983.88671875,-871.09375,-887.20703125,-600.5859375
5.262718677520752,798.828125,869.140625,-19.04296875,-229.00390625,-1000.0
5.266624927520752,-542.96875,-517.578125,666.9921875,-1000.0,-682.6171875
5.270531177520752,-1000.0,-1000.0,-125.0,-805.6640625,799.31640625
5.274437427520752,-188.4765625,-557.6171875,-932.12890625,544.43359375,953.61328125
5.278343677520752,-970.21484375,859.86328125,-928.22265625,-817.87109375,-542.48046875
5.282249927520752,889.16015625,986.328125,-185.546875,164.0625,-1000.0
5.286156177520752,-462.890625,-418.9453125,599.12109375,-1000.0,-806.640625
5.290062427520752,-1000.0,-1000.0,-7.8125,-865.234375,659.1796875
5.293968677520752,-558.59375,-705.56640625,-903.3203125,518.5546875,-999.51171875
5.295000076293945,846.6796875,706.54296875,-1000.0,-811.5234375,-520.01953125
5.298906326293945,-962.40234375,-903.80859375,-296.38671875,542.48046875,-1000.0
5.302812576293945,-317.3828125,-224.609375,582.51953125,-927.24609375,-838.8671875
5.306718826293945,-1000.0,-1000.0,30.76171875,-827.63671875,554.6875
5.310625076293945,-686.03515625,-814.453125,-900.390625,588.37890625,-878.41796875
5.314531326293945,708.0078125,562.5,-1000.0,-869.62890625,-272.4609375
5.318437576293945,-874.51171875,-835.9375,-259.765625,708.984375,-1000.0
5.322343826293945,-97.16796875,44.43359375,632.8125,-779.296875,-855.46875
5.326250076293945,-1000.0,-1000.0,119.140625,-1000.0,521.484375
5.330156326293945,-798.828125,-859.375,-857.421875,485.83984375,-840.8203125
5.334062576293945,576.171875,521.484375,-1000.0,-866.69921875,-107.421875
5.337968826293945,-823.73046875,-818.359375,-504.8828125,791.50390625,-1000.0
5.359999895095825,212.890625,373.046875,470.21484375,-620.60546875,-904.78515625
5.363906145095825,-1000.0,-991.2109375,375.48828125,-1000.0,422.8515625
5.367812395095825,-873.046875,-904.296875,-707.03125,304.19921875,-805.6640625
5.371718645095825,522.4609375,534.1796875,-1000.0,-857.421875,207.51953125
5.375624895095825,-818.359375,-835.9375,-595.703125,806.15234375,-1000.0
5.379531145095825,548.33984375,613.28125,462.40234375,-557.12890625,-990.72265625
5.383437395095825,-929.19921875,-834.47265625,500.0,-1000.0,325.1953125
5.387343645095825,-927.24609375,-1000.0,-683.59375,28.80859375,-801.7578125
5.391249895095825,554.19921875,453.61328125,-1000.0,-892.08984375,497.0703125
5.395156145095825,-854.00390625,-851.5625,-587.890625,815.4296875,-839.35546875
5.399062395095825,701.171875,742.67578125,447.265625,-548.33984375,-1000.0
5.402968645095825,-776.85546875,-675.78125,506.8359375,-1000.0,47.36328125
5.398000001907349,-1000.0,-1000.0,-618.65234375,-291.015625,-865.72265625
5.401906251907349,488.28125,291.9921875,-1000.0,994.62890625,705.56640625
5.405812501907349,-875.48828125,-856.4453125,-751.953125,906.25,-676.7578125
5.409718751907349,819.3359375,795.8984375,213.8671875,-470.21484375,-1000.0
5.413625001907349,-583.984375,-570.80078125,628.90625,-1000.0,-256.8359375
5.417531251907349,-1000.0,-1000.0,-355.95703125,-557.6171875,-978.02734375
5.421437501907349,304.6875,12.20703125,-1000.0,845.703125,803.22265625
5.425343751907349,-858.3984375,-901.3671875,-856.93359375,-958.0078125,-593.75
5.429250001907349,808.59375,820.3125,82.03125,-308.59375,-1000.0
5.433156251907349,-562.01171875,-541.9921875,681.15234375,-1000.0,-415.52734375
5.437062501907349,-1000.0,-1000.0,-244.140625,-704.58984375,963.37890625
5.440968751907349,76.66015625,-346.6796875,-997.0703125,685.546875,859.375
5.443000078201294,-883.30078125,977.5390625,-878.90625,-862.79296875,-577.63671875
5.446906328201294,812.98828125,895.5078125,12.6953125,-62.98828125,-1000.0
5.450812578201294,-550.29296875,-502.44140625,637.6953125,-1000.0,-731.4453125
5.454718828201294,-1000.0,-1000.0,-155.2734375,-847.16796875,758.30078125
5.458625078201294,-215.33203125,-602.5390625,-942.3828125,517.578125,949.21875
5.462531328201294,-982.421875,820.80078125,-967.28515625,-812.01171875,-574.70703125
5.466437578201294,899.90234375,-982.91015625,-177.734375,248.046875,-1000.0
5.470343828201294,-452.1484375,-370.60546875,609.375,-1000.0,-824.70703125
5.474250078201294,-1000.0,-1000.0,0.9765625,-878.41796875,628.41796875
5.478156328201294,-558.10546875,-731.93359375,-887.6953125,525.390625,-979.4921875
5.482062578201294,845.21484375,675.78125,-1000.0,-818.84765625,-490.234375
5.485968828201294,-958.49609375,-885.7421875,-331.54296875,548.828125,-1000.0
5.503999948501587,-308.59375,-173.828125,561.03515625,-929.19921875,-848.14453125
5.507906198501587,-1000.0,-1000.0,80.078125,-927.24609375,548.33984375
5.511812448501587,-707.51953125,-834.47265625,-883.30078125,554.6875,-875.9765625
5.515718698501587,687.98828125,546.38671875,-1000.0,-852.5390625,-290.0390625
5.519624948501587,-860.3515625,-828.125,-298.33984375,698.73046875,-1000.0
5.523531198501587,-129.8828125,34.1796875,546.875,-770.5078125,-747.0703125
5.527437448501587,-1000.0,-1000.0,236.81640625,-1000.0,520.01953125
5.531343698501587,-829.58984375,-853.02734375,-762.20703125,457.51953125,-828.61328125
5.535249948501587,503.90625,516.6015625,-1000.0,-872.0703125,165.52734375
5.539156198501587,-807.12890625,-817.3828125,-519.53125,820.3125,-1000.0
5.543062448501587,358.3984375,441.40625,460.9375,-584.9609375,-956.0546875
5.546968698501587,-1000.0,-958.0078125,370.1171875,-1000.0,404.296875
5.534999847412109,-895.01953125,-926.26953125,-733.88671875,304.6875,-803.7109375
5.538906097412109,535.15625,522.94921875,-1000.0,-856.93359375,266.11328125
5.542812347412109,-832.51953125,-839.84375,-616.2109375,804.6875,-987.79296875
5.546718597412109,612.3046875,650.390625,440.91796875,-554.19921875,-1000.0
5.550624847412109,-879.8828125,-796.875,505.859375,-1000.0,294.43359375
5.554531097412109,-941.89453125,-1000.0,-652.34375,3.90625,-809.08203125
5.558437347412109,561.03515625,418.9453125,-1000.0,-895.99609375,585.44921875
5.562343597412109,-862.79296875,-853.515625,-646.97265625,813.96484375,-774.90234375
5.566249847412109,732.421875,761.23046875,361.81640625,-544.43359375,-1000.0
5.570156097412109,-742.67578125,-646.97265625,522.94921875,-1000.0,-15.13671875
5.574062347412109,-1000.0,-1000.0,-602.05078125,-381.34765625,-904.78515625
5.577968597412109,489.74609375,248.53515625,-1000.0,955.078125,794.43359375
5.578000068664551,-875.0,-860.3515625,-745.1171875,940.91796875,-573.2421875
5.581906318664551,819.3359375,800.78125,174.31640625,-453.61328125,-1000.0
5.585812568664551,-583.984375,-559.08203125,588.8671875,-1000.0,-424.8046875
5.589718818664551,-1000.0,-1000.0,-385.7421875,-541.9921875,959.47265625
5.593625068664551,304.19921875,-65.4296875,-1000.0,817.3828125,839.84375
5.597531318664551,-857.421875,-921.38671875,-818.359375,-955.56640625,-597.65625
5.601437568664551,804.19921875,830.56640625,119.62890625,-310.05859375,-1000.0
5.605343818664551,-554.6875,-537.109375,714.35546875,-1000.0,-459.47265625
5.609250068664551,-1000.0,-1000.0,-78.61328125,-751.953125,943.84765625
5.613156318664551,3.90625,-420.41015625,-946.2890625,628.41796875,857.91015625
5.617062568664551,-897.4609375,943.359375,-917.48046875,-846.6796875,-589.84375
5.620968818664551,812.98828125,921.38671875,-1.46484375,-32.71484375,-1000.0
5.625,-544.43359375,-482.421875,626.46484375,-1000.0,-759.765625
5.62890625,-1000.0,-1000.0,-151.85546875,-845.703125,727.05078125
5.6328125,-376.953125,-643.5546875,-934.5703125,512.6953125,959.9609375
5.63671875,944.3359375,783.69140625,-993.65234375,-809.08203125,-569.3359375
5.640625,964.35546875,-955.078125,-252.9296875,358.88671875,-1000.0
5.64453125,-392.08984375,-332.51953125,617.1875,-1000.0,-826.66015625
5.6484375,-1000.0,-1000.0,55.17578125,-894.53125,612.79296875
5.65234375,-617.67578125,-764.16015625,-881.34765625,536.1328125,-954.58984375
5.65625,787.109375,629.8828125,-1000.0,-834.47265625,-444.3359375
5.66015625,-918.9453125,-864.74609375,-351.07421875,631.8359375,-1000.0
5.6640625,-240.72265625,-102.05078125,572.265625,-865.72265625,-846.6796875
5.66796875,-1000.0,-1000.0,90.33203125,-945.80078125,540.52734375
5.667999982833862,-730.95703125,-843.26171875,-892.08984375,564.453125,-866.2109375
5.671906232833862,648.92578125,527.83203125,-1000.0,-864.74609375,-225.09765625
5.675812482833862,-841.30859375,-815.91796875,-425.78125,745.1171875,-1000.0
5.679718732833862,33.69140625,194.3359375,527.83203125,-702.63671875,-847.16796875
5.683624982833862,-1000.0,-1000.0,315.4296875,-1000.0,480.95703125
5.687531232833862,-756.34765625,-776.85546875,-756.34765625,398.4375,-807.12890625
5.691437482833862,551.26953125,561.5234375,-1000.0,-864.2578125,266.11328125
5.695343732833862,-827.63671875,-839.84375,-551.7578125,813.96484375,-1000.0
5.699249982833862,366.69921875,507.8125,426.7578125,-571.2890625,-983.3984375
5.703156232833862,-1000.0,-926.26953125,393.06640625,-1000.0,378.41796875
5.707062482833862,-894.53125,-947.75390625,-708.0078125,208.984375,-803.22265625
5.710968732833862,535.64453125,511.71875,-1000.0,-857.421875,358.88671875
5.730000019073486,-835.44921875,-844.23828125,-633.7890625,803.7109375,-960.9375
5.733906269073486,630.859375,685.05859375,418.9453125,-549.8046875,-1000.0
5.737812519073486,-865.72265625,-756.34765625,546.38671875,-1000.0,343.26171875
5.741718769073486,-945.80078125,-1000.0,-650.87890625,-112.3046875,-814.94140625
5.745625019073486,565.4296875,381.8359375,-1000.0,-928.7109375,523.4375
5.749531269073486,-870.1171875,-854.4921875,-631.8359375,830.078125,-780.2734375
5.753437519073486,763.671875,777.83203125,398.92578125,-552.734375,-1000.0
5.757343769073486,-681.640625,-617.1875,545.41015625,-1000.0,-130.859375
5.761250019073486,-1000.0,-1000.0,-581.54296875,-380.859375,-930.6640625
5.765156269073486,398.92578125,184.5703125,-1000.0,941.89453125,805.17578125
5.769062519073486,-865.72265625,-868.65234375,-786.62109375,968.75,-581.54296875
5.772968769073486,815.91796875,806.640625,138.671875,-386.71875,-1000.0
5.773999929428101,-576.66015625,-549.31640625,632.8125,-1000.0,-480.46875
5.777906179428101,-1000.0,-1000.0,-251.953125,-628.41796875,935.05859375
5.781812429428101,238.76953125,-154.296875,-993.1640625,767.578125,840.8203125
5.785718679428101,-858.3984375,-947.75390625,-871.09375,994.62890625,-618.1640625
5.789624929428101,806.15234375,843.75,119.62890625,-255.37109375,-1000.0
5.793531179428101,-554.6875,-536.1328125,519.04296875,-1000.0,-369.62890625
5.797437429428101,-1000.0,-1000.0,-268.06640625,-779.296875,958.0078125
5.801343679428101,-31.73828125,-485.3515625,-935.546875,602.5390625,857.421875
5.805249929428101,-912.59765625,907.2265625,-944.3359375,-831.54296875,-575.1953125
5.809156179428101,832.51953125,948.73046875,33.203125,99.12109375,-1000.0
5.813062429428101,-524.90234375,-460.44921875,695.3125,-1000.0,-784.1796875
5.816968679428101,-1000.0,-1000.0,-125.9765625,-863.28125,691.40625
5.819000005722046,-375.9765625,-668.9453125,-922.8515625,521.97265625,980.46875
5.822906255722046,943.84765625,753.41796875,-1000.0,-812.5,-545.8984375
5.826812505722046,967.28515625,-932.12890625,-261.71875,376.953125,-1000.0
5.830718755722046,-386.71875,-291.9921875,604.00390625,-1000.0,-827.63671875
5.834625005722046,-1000.0,-1000.0,36.1328125,-897.94921875,582.51953125
5.838531255722046,-634.765625,-791.015625,-885.25390625,537.59765625,-901.85546875
5.842437505722046,769.04296875,594.7265625,-1000.0,-834.47265625,-334.9609375
5.846343755722046,-905.76171875,-850.5859375,-378.41796875,628.41796875,-1000.0
5.850250005722046,-220.21484375,-53.22265625,576.171875,-856.4453125,-829.1015625
5.854156255722046,-1000.0,-1000.0,182.6171875,-974.609375,561.5234375
5.858062505722046,-767.578125,-850.09765625,-863.28125,520.99609375,-858.3984375
5.861968755722046,593.75,518.5546875,-1000.0,-863.76953125,-185.05859375
5.86299991607666,-826.66015625,-816.89453125,-392.578125,764.6484375,-1000.0
5.86690616607666,165.0390625,280.2734375,526.3671875,-682.6171875,-874.51171875
5.87081241607666,-1000.0,-1000.0,281.73828125,-1000.0,434.08203125
5.87471866607666,-866.2109375,-886.23046875,-778.80859375,411.62109375,-799.8046875
5.87862491607666,519.53125,532.2265625,-1000.0,-855.46875,319.82421875
5.88253116607666,-816.89453125,-828.125,-316.40625,524.4140625,-985.3515625
5.88643741607666,521.97265625,561.5234375,559.5703125,-694.82421875,-990.234375
5.89034366607666,-940.91796875,-880.859375,437.5,-1000.0,375.0
5.89424991607666,-922.8515625,-979.00390625,-631.8359375,181.640625,-800.29296875
5.89815616607666,550.78125,483.88671875,-1000.0,-849.12109375,421.38671875
5.90206241607666,-848.14453125,-847.65625,-661.62109375,799.31640625,-893.5546875
5.90596866607666,675.29296875,712.890625,374.0234375,-542.96875,-1000.0
5.909999847412109,-822.265625,-720.703125,487.79296875,-1000.0,123.53515625
5.913906097412109,-962.890625,-1000.0,-649.4140625,-191.40625,-842.28515625
5.917812347412109,559.08203125,346.19140625,-1000.0,-960.9375,629.8828125
5.921718597412109,-872.0703125,-856.4453125,-704.58984375,864.2578125,-732.91015625
5.925624847412109,774.4140625,789.0625,277.34375,-502.44140625,-1000.0
5.929531097412109,-668.45703125,-591.30859375,583.49609375,-1000.0,-155.2734375
5.933437347412109,-1000.0,-1000.0,-483.88671875,-565.4296875,-941.89453125
5.937343597412109,399.4140625,110.83984375,-1000.0,861.81640625,803.22265625
5.941249847412109,-864.74609375,-879.8828125,-798.828125,-998.53515625,-578.125
5.945156097412109,813.4765625,810.546875,116.2109375,-402.34375,-1000.0
5.949062347412109,-571.2890625,-545.8984375,618.1640625,-1000.0,-545.41015625
5.952968597412109,-1000.0,-1000.0,-226.5625,-697.265625,904.296875
5.953000068664551,204.58984375,-239.74609375,-960.44921875,711.9140625,857.421875
5.956906318664551,-856.93359375,-977.5390625,-905.76171875,-890.625,-601.07421875
5.960812568664551,798.828125,864.74609375,-7.32421875,-226.5625,-1000.0
5.964718818664551,-542.96875,-520.99609375,670.8984375,-1000.0,-677.734375
5.968625068664551,-1000.0,-1000.0,-117.1875,-795.8984375,817.3828125
5.972531318664551,-188.4765625,-551.7578125,-952.63671875,556.640625,923.33984375
5.976437568664551,-970.21484375,864.74609375,-938.96484375,-814.94140625,-589.35546875
5.980343818664551,889.6484375,981.4453125,-1.953125,158.203125,-1000.0
5.984250068664551,-463.37890625,-426.26953125,679.6875,-1000.0,-797.36328125
5.988156318664551,-1000.0,-1000.0,-125.9765625,-765.625,638.18359375
5.992062568664551,-548.33984375,-701.66015625,-930.6640625,552.734375,-944.82421875
5.995968818664551,853.02734375,710.9375,-1000.0,-833.0078125,-416.50390625
6.0,-968.26171875,-906.25,-328.125,556.640625,-1000.0
