Timestamp,C3,CZ,C4,FCZ,FC3,CP4,CPZ,CP3,FC4
0.0,-2.5848865509033203,-5.362340450286865,-9.983221054077148,-3.2715137004852295,-1.4662929773330688,-12.529438972473145,-8.752209663391113,-3.070357084274292,-5.811016082763672
0.0027121000457555056,-2.756399154663086,-5.242977619171143,-10.345248222351074,-3.1486313343048096,-1.5521994829177856,-13.648770332336426,-9.22248363494873,-3.5823307037353516,-5.725330352783203
0.005630900035612285,-2.831732988357544,-4.920755863189697,-10.477352142333984,-2.9497077465057373,-1.5710331201553345,-14.622339248657227,-9.468011856079102,-4.126604080200195,-5.550718307495117
0.009952299995347857,-2.8427131175994873,-4.4117631912231445,-10.414938926696777,-2.701765775680542,-1.5396305322647095,-15.388483047485352,-9.458453178405762,-4.68748140335083,-5.361713409423828
0.015902400016784668,-2.855752468109131,-3.770062208175659,-10.224438667297363,-2.4424328804016113,-1.4975359439849854,-15.899270057678223,-9.19411849975586,-5.2621989250183105,-5.224809169769287
0.018564900034107268,-2.9539005756378174,-3.0752806663513184,-9.987319946289062,-2.206808567047119,-1.4980031251907349,-16.124807357788086,-8.7012300491333,-5.855710506439209,-5.178817272186279
0.021787500008940697,-3.21016526222229,-2.4109437465667725,-9.778876304626465,-2.0137057304382324,-1.5872035026550293,-16.052404403686523,-8.023270606994629,-6.4705963134765625,-5.224402904510498
0.024177500046789646,-3.6595091819763184,-1.8410650491714478,-9.643653869628906,-1.8558303117752075,-1.7885005474090576,-15.67855167388916,-7.207866668701172,-7.097472667694092,-5.3194050788879395
0.029221200034953654,-4.286208629608154,-1.3937098979949951,-9.578221321105957,-1.7013152837753296,-2.095308542251587,-15.002979278564453,-6.2994513511657715,-7.7093071937561035,-5.385371208190918
0.032241899985820055,-5.024724960327148,-1.0596985816955566,-9.534598350524902,-1.5049229860305786,-2.4723923206329346,-14.031245231628418,-5.33803653717041,-8.26389217376709,-5.3289079666137695
0.035188899957574904,-5.776656150817871,-0.8031709790229797,-9.427595138549805,-1.228529930114746,-2.871248245239258,-12.773702621459961,-4.3617634773254395,-8.713682174682617,-5.070730209350586
0.03815190005116165,-6.437355995178223,-0.582368016242981,-9.15697956085205,-0.8588421940803528,-3.2474560737609863,-11.25076675415039,-3.4104466438293457,-9.01852035522461,-4.571310043334961
0.04116799996700138,-6.926988124847412,-0.37358608841896057,-8.63591194152832,-0.42230233550071716,-3.579308271408081,-9.500798225402832,-2.530656099319458,-9.159882545471191,-3.8468878269195557
0.04393489996436983,-7.213316917419434,-0.1879986822605133,-7.8140363693237305,0.014181018806993961,-3.877688407897949,-7.581543445587158,-1.773724913597107,-9.150206565856934,-2.973452091217041
0.0466259999666363,-7.328480243682861,-0.08172618597745895,-6.6990861892700195,0.34906166791915894,-4.1884846687316895,-5.576833724975586,-1.1966915130615234,-9.039464950561523,-2.074422836303711
0.049612100003287196,-7.362123489379883,-0.14684292674064636,-5.363852024078369,0.4675196409225464,-4.581707000732422,-3.5918264389038086,-0.8549817204475403,-8.906781196594238,-1.2944976091384888
0.05284410004969686,-7.435835361480713,-0.4873347878456116,-3.9382097721099854,0.269992470741272,-5.125050067901611,-1.7428150177001953,-0.7902904748916626,-8.841105461120605,-0.7675751447677612
0.05562939995434135,-7.668208122253418,-1.1875262260437012,-2.587270498275757,-0.30142703652381897,-5.859182834625244,-0.1428983062505722,-1.0195131301879883,-8.914872169494629,-0.5886946320533752
0.058580499957315624,-8.132240295410156,-2.2748122215270996,-1.4739617109298706,-1.2397371530532837,-6.771589756011963,1.1233056783676147,-1.5176395177841187,-9.15485954284668,-0.7902148365974426
0.062115499982610345,-8.82248306274414,-3.6966803073883057,-0.7203088998794556,-2.4658539295196533,-7.783692836761475,2.0190632343292236,-2.210353374481201,-9.520981788635254,-1.3340708017349243
0.0645866000559181,-9.63580322265625,-5.306824684143066,-0.3724009394645691,-3.8316733837127686,-8.751080513000488,2.5761234760284424,-2.9656822681427,-9.894832611083984,-2.119863986968994
0.06761090003419667,-10.3818998336792,-6.877618789672852,-0.3780986964702606,-5.138956546783447,-9.482378005981445,2.902035713195801,-3.6019701957702637,-10.0923490524292,-2.9955873489379883
0.07063400000333786,-10.819334983825684,-8.138460159301758,-0.5946085453033447,-6.174735069274902,-9.780226707458496,3.165433406829834,-3.9148550033569336,-9.899968147277832,-3.7809133529663086
0.07356839999556541,-10.718165397644043,-8.833799362182617,-0.8202708959579468,-6.755416393280029,-9.491161346435547,3.5589427947998047,-3.7211220264434814,-9.129961967468262,-4.297883033752441
0.0765435000648722,-9.931564331054688,-8.793726921081543,-0.8550983667373657,-6.773103713989258,-8.558487892150879,4.243086338043213,-2.9171390533447266,-7.685050964355469,-4.406771659851074
0.07968540000729263,-8.4580078125,-7.995344161987305,-0.5664863586425781,-6.2341461181640625,-7.060697555541992,5.2860493659973145,-1.5304369926452637,-5.6121907234191895,-4.03992223739624
0.08255880000069737,-6.4740142822265625,-6.597079277038574,0.05478344112634659,-5.275029182434082,-5.2219343185424805,6.61643123626709,0.2461167722940445,-3.1296026706695557,-3.227634906768799
0.08564870001282543,-4.309874057769775,-4.920841693878174,0.8790928721427917,-4.142571926116943,-3.3769264221191406,8.01867961883545,2.073126792907715,-0.5978525280952454,-2.102195978164673
0.08849870006088167,-2.383794069290161,-3.3897175788879395,1.6664787530899048,-3.142915964126587,-1.9027314186096191,9.172266006469727,3.525977373123169,1.5496611595153809,-0.8783429265022278
0.09147069999016821,-1.0903773307800293,-2.42128324508667,2.137085199356079,-2.563676118850708,-1.1227054595947266,9.735376358032227,4.200934886932373,2.917107582092285,0.1949581354856491
0.0943342000246048,-0.6893107891082764,-2.3127646446228027,2.0639209747314453,-2.5920040607452393,-1.2155749797821045,9.450752258300781,3.832242727279663,3.260302782058716,0.8991819024085999
0.09721330006141216,-1.223422884941101,-3.1516916751861572,1.3576338291168213,-3.254840135574341,-2.1571366786956787,8.235064506530762,2.383561849594116,2.567903995513916,1.1081597805023193
0.10010439995676279,-2.4939804077148438,-4.779513359069824,0.10996468365192413,-4.401605606079102,-3.7128758430480957,6.2268500328063965,0.0805925726890564,1.084344744682312,0.8268234729766846
0.1026282999664545,-4.10713529586792,-6.827508449554443,-1.4198309183120728,-5.739114761352539,-5.492460250854492,3.765327215194702,-2.6310110092163086,-0.7419484257698059,0.19194616377353668
0.10560740006621927,-5.586488246917725,-8.820182800292969,-2.883086919784546,-6.915969371795654,-7.053320407867432,1.3010435104370117,-5.2004523277282715,-2.378352403640747,-0.5737334489822388
0.1086186000611633,-6.501175880432129,-10.306313514709473,-3.9453210830688477,-7.621772289276123,-8.015582084655762,-0.7308099269866943,-7.119537830352783,-3.3518996238708496,-1.2287261486053467
0.11185560002923012,-6.5896477699279785,-10.984757423400879,-4.3891119956970215,-7.677300453186035,-8.163902282714844,-2.0324323177337646,-8.060375213623047,-3.3804092407226562,-1.5868922472000122
0.11469519999809563,-5.823482990264893,-10.783798217773438,-4.186357498168945,-7.084140300750732,-7.494511604309082,-2.531806230545044,-7.9614949226379395,-2.4481773376464844,-1.578445553779602
0.11790089996065944,-4.401658535003662,-9.866281509399414,-3.5015196800231934,-6.016104698181152,-6.200470924377441,-2.393338918685913,-7.029277801513672,-0.8006803393363953,-1.2591536045074463
0.12064850004389882,-2.6839702129364014,-8.569905281066895,-2.6383798122406006,-4.762032985687256,-4.606801986694336,-1.961586833000183,-5.666811466217041,1.1303261518478394,-0.7869012355804443
0.12352100003045052,-1.0827527046203613,-7.300914764404297,-1.9473021030426025,-3.6385626792907715,-3.0740227699279785,-1.6530272960662842,-4.350370407104492,2.850977659225464,-0.36681655049324036
0.12650949996896088,0.04652091860771179,-6.418950080871582,-1.7207688093185425,-2.9029014110565186,-1.9047276973724365,-1.8340415954589844,-3.4969329833984375,3.9344372749328613,-0.1847303956747055
0.1295972999650985,0.48440709710121155,-6.148280143737793,-2.1194565296173096,-2.693105459213257,-1.2816907167434692,-2.7271862030029297,-3.365983486175537,4.1176981925964355,-0.3545209467411041
0.13248589995782822,0.1776820421218872,-6.536967754364014,-3.137791872024536,-3.009107828140259,-1.247527837753296,-4.363347053527832,-4.015872001647949,3.3412866592407227,-0.8958830237388611
0.13555829995311797,-0.7739675045013428,-7.467198371887207,-4.624956130981445,-3.7340707778930664,-1.7245382070541382,-6.597288608551025,-5.322178363800049,1.7345645427703857,-1.741711974143982
0.13847260002512485,-2.168375253677368,-8.70638370513916,-6.338657379150391,-4.6806159019470215,-2.5576329231262207,-9.165909767150879,-7.040253639221191,-0.4431122839450836,-2.7639646530151367
0.14144569996278733,-3.7621381282806396,-9.976566314697266,-8.015745162963867,-5.6458516120910645,-3.5653226375579834,-11.767464637756348,-8.883524894714355,-2.8790416717529297,-3.8159382343292236
0.14424659998621792,-5.321752548217773,-11.019632339477539,-9.434428215026855,-6.454616546630859,-4.577219009399414,-14.133702278137207,-10.592947006225586,-5.2741217613220215,-4.764607906341553
0.14725350006483495,-6.662331581115723,-11.648675918579102,-10.455604553222656,-6.9881744384765625,-5.458415985107422,-16.08017921447754,-11.983978271484375,-7.391457557678223,-5.516483783721924
0.15004099998623133,-7.670358180999756,-11.773699760437012,-11.037932395935059,-7.194283485412598,-6.1183319091796875,-17.522592544555664,-12.963542938232422,-9.07868480682373,-6.027692794799805
0.15274519997183233,-8.303107261657715,-11.405919075012207,-11.226184844970703,-7.083661079406738,-6.50974702835083,-18.470020294189453,-13.524055480957031,-10.27068042755127,-6.303318500518799
0.1557147999992594,-8.58639144897461,-10.642350196838379,-11.128978729248047,-6.718500137329102,-6.627560615539551,-18.998584747314453,-13.722718238830566,-10.977994918823242,-6.393829822540283
0.1587031000526622,-8.59032154083252,-9.630512237548828,-10.878545761108398,-6.190638065338135,-6.4961700439453125,-19.21116065979004,-13.648216247558594,-11.262385368347168,-6.374108791351318
0.1618234000634402,-8.406444549560547,-8.529952049255371,-10.592909812927246,-5.600370407104492,-6.1627607345581055,-19.20525360107422,-13.393424987792969,-11.21595287322998,-6.324839115142822
0.16472490003798157,-8.120089530944824,-7.472167015075684,-10.345108985900879,-5.033317565917969,-5.68548059463501,-19.04559326171875,-13.028791427612305,-10.935826301574707,-6.307399272918701
0.16768409998621792,-7.7848310470581055,-6.52982759475708,-10.14094066619873,-4.542166709899902,-5.119574546813965,-18.74698257446289,-12.586133003234863,-10.504024505615234,-6.344357967376709
0.17068129999097437,-7.411020755767822,-5.7071757316589355,-9.921114921569824,-4.138779640197754,-4.507408618927002,-18.277755737304688,-12.056185722351074,-9.977179527282715,-6.410650253295898
0.17282209999393672,-6.966874599456787,-4.948073863983154,-9.57758903503418,-3.795109748840332,-3.872415065765381,-17.570051193237305,-11.39725112915039,-9.38081169128418,-6.4376959800720215
0.17581719998270273,-6.403062343597412,-4.171376705169678,-8.993535041809082,-3.463512420654297,-3.224693536758423,-16.54973793029785,-10.56166934967041,-8.722909927368164,-6.336134433746338
0.17916319996584207,-5.68381404876709,-3.311131000518799,-8.087074279785156,-3.1010406017303467,-2.573544979095459,-15.16694450378418,-9.525533676147461,-8.011457443237305,-6.028148174285889
0.18189030000939965,-4.820972442626953,-2.351489543914795,-6.849343299865723,-2.6900527477264404,-1.9414681196212769,-13.423521995544434,-8.310803413391113,-7.2707839012146,-5.477122783660889
0.18483459996059537,-3.8747639656066895,-1.3334866762161255,-5.352303981781006,-2.2402639389038086,-1.3601210117340088,-11.375811576843262,-6.985623359680176,-6.540362358093262,-4.6974592208862305
0.18793919996824116,-2.9448904991149902,-0.3420318067073822,-3.7363367080688477,-1.7823245525360107,-0.8676361441612244,-9.126396179199219,-5.64686393737793,-5.867337226867676,-3.7522544860839844
0.19079709996003658,-2.131389617919922,0.5369077920913696,-2.156757354736328,-1.3410567045211792,-0.4872439503669739,-6.788392543792725,-4.382184028625488,-5.2805352210998535,-2.718392848968506
0.19310559995938092,-1.490706443786621,1.2589386701583862,-0.7305121421813965,-0.9124652147293091,-0.20817144215106964,-4.449705600738525,-3.2298145294189453,-4.765176773071289,-1.6552455425262451
0.1961268000304699,-1.0068570375442505,1.8490111827850342,0.5074930191040039,-0.4539046585559845,0.022658752277493477,-2.1465108394622803,-2.1572048664093018,-4.253104209899902,-0.579051673412323
0.19935070001520216,-0.5890867114067078,2.402695655822754,1.6215431690216064,0.10616893321275711,0.2929163873195648,0.14474564790725708,-1.0625827312469482,-3.631673574447632,0.5426538586616516
0.20217910001520067,-0.09964592754840851,3.056351900100708,2.7534866333007812,0.841336190700531,0.7004133462905884,2.4907970428466797,0.19280023872852325,-2.774181842803955,1.771736979484558
0.20505180000327528,0.5942897200584412,3.935896635055542,4.068453788757324,1.7895780801773071,1.3155850172042847,4.961265563964844,1.7322903871536255,-1.5847259759902954,3.1602745056152344
0.20804599998518825,1.5672093629837036,5.106681823730469,5.687463760375977,2.926516056060791,2.1517817974090576,7.586539268493652,3.61352801322937,-0.036606863141059875,4.710646629333496
0.2111298000672832,2.7978785037994385,6.541205883026123,7.6316237449646,4.157161712646484,3.1474087238311768,10.325108528137207,5.7961931228637695,1.806129813194275,6.350572109222412
0.21421720006037503,4.168448448181152,8.118182182312012,9.795863151550293,5.33377742767334,4.1770501136779785,13.054462432861328,8.142354011535645,3.7976155281066895,7.933917999267578
0.21720379998441786,5.495842456817627,9.65144157409668,11.965485572814941,6.294051647186279,5.08208703994751,15.589888572692871,10.44734001159668,5.744215965270996,9.268852233886719
0.22023730003274977,6.582942962646484,10.93871021270752,13.868614196777344,6.904393196105957,5.712157249450684,17.725587844848633,12.491438865661621,7.452887058258057,10.168244361877441
0.22274100000504404,7.277499198913574,11.812188148498535,15.245904922485352,7.095073699951172,5.967504501342773,19.283605575561523,14.094977378845215,8.778607368469238,10.49919605255127
0.2253709000069648,7.512781620025635,12.175848960876465,15.917716026306152,6.874858856201172,5.825125694274902,20.156328201293945,15.158061981201172,9.655149459838867,10.22048568725586
0.22844840004108846,7.311956405639648,12.017924308776855,15.828242301940918,6.32245397567749,5.336236476898193,20.32953643798828,15.671650886535645,10.095946311950684,9.397843360900879
0.2313649000134319,6.783259391784668,11.409953117370605,15.06166934967041,5.568485260009766,4.616043567657471,19.88728141784668,15.713862419128418,10.18663215637207,8.19387435913086
0.23436190001666546,6.0844926834106445,10.4865083694458,13.818245887756348,4.76676607131958,3.8153207302093506,18.99387550354004,15.423307418823242,10.05636978149414,6.836063861846924
0.2373737000161782,5.387665271759033,9.421138763427734,12.370315551757812,4.0720438957214355,3.0909578800201416,17.862558364868164,14.968955993652344,9.849342346191406,5.575775623321533
0.24037170002702624,4.849987506866455,8.399161338806152,10.998740196228027,3.6205556392669678,2.5811991691589355,16.715614318847656,14.519462585449219,9.702641487121582,4.63981819152832
0.24304159998428077,4.595762729644775,7.592044353485107,9.936396598815918,3.517277717590332,2.38997483253479,15.746321678161621,14.218632698059082,9.73015308380127,4.194098472595215
0.24607059999834746,4.703405857086182,7.129848957061768,9.317802429199219,3.820269823074341,2.5743556022644043,15.082630157470703,14.161460876464844,10.008566856384277,4.311113357543945
0.24903980002272874,5.196050643920898,7.077444076538086,9.155614852905273,4.527522087097168,3.13411021232605,14.7647066116333,14.380084991455078,10.567621231079102,4.956132888793945
0.2520567000610754,6.040869235992432,7.4184064865112305,9.343008995056152,5.567504405975342,4.012222766876221,14.736021995544434,14.834222793579102,11.382675170898438,5.9917826652526855
0.2549996000016108,7.143570899963379,8.051000595092773,9.682047843933105,6.797621250152588,5.0952019691467285,14.85325813293457,15.412822723388672,12.371795654296875,7.2007012367248535
0.2579849000321701,8.35456371307373,8.8034029006958,9.93138599395752,8.020638465881348,6.225872993469238,14.914745330810547,15.950336456298828,13.4015474319458,8.325541496276855
0.2610520999878645,9.486503601074219,9.465373039245605,9.864700317382812,9.01759147644043,7.225356578826904,14.7013578414917,16.255809783935547,14.303997039794922,9.120039939880371
0.26367709995247424,10.342550277709961,9.832535743713379,9.318317413330078,9.59038257598877,7.926331043243408,14.022984504699707,16.150617599487305,14.90649127960205,9.393964767456055
0.26663089997600764,10.752644538879395,9.749937057495117,8.226166725158691,9.6048583984375,8.205119132995605,12.75939655303955,15.507086753845215,15.063494682312012,9.050090789794922
0.2697094000177458,10.607185363769531,9.143765449523926,6.628756523132324,9.02199649810791,8.008814811706543,10.88382625579834,14.274063110351562,14.685946464538574,8.100558280944824
0.27297130005899817,9.883167266845703,8.0318603515625,4.653888702392578,7.905972957611084,7.367115497589111,8.465554237365723,12.485122680664062,13.760422706604004,6.656165599822998
0.27595370006747544,8.652685165405273,6.515766143798828,2.4838666915893555,6.40972375869751,6.388286113739014,5.653679847717285,10.250202178955078,12.353273391723633,4.896457195281982
0.2789998999796808,7.066306114196777,4.750724792480469,0.3099486529827118,4.739027976989746,5.232906818389893,2.6420769691467285,7.726255893707275,10.5942964553833,3.0293619632720947
0.2822029000381008,5.328067779541016,2.9153947830200195,-1.6994386911392212,3.1130268573760986,4.082794189453125,-0.365008145570755,5.088562965393066,8.653465270996094,1.2550660371780396
0.28495880006812513,3.65877628326416,1.1817662715911865,-3.420626401901245,1.7259771823883057,3.1080822944641113,-3.1860973834991455,2.501875162124634,6.711330413818359,-0.26375070214271545
0.2879123999737203,2.254800796508789,-0.30690881609916687,-4.779862880706787,0.7190919518470764,2.4336674213409424,-5.6840715408325195,0.10204371809959412,4.9263434410095215,-1.414286494255066
0.2909077999647707,1.2634023427963257,-1.4426246881484985,-5.741258144378662,0.17160464823246002,2.129549741744995,-7.772608280181885,-2.010115623474121,3.4174792766571045,-2.131422519683838
0.2934310999698937,0.761502206325531,-2.159121036529541,-6.296626091003418,0.09841013699769974,2.2032127380371094,-9.415485382080078,-3.7686336040496826,2.249737024307251,-2.394864320755005
0.29650579998269677,0.7467820048332214,-2.4328932762145996,-6.455758571624756,0.45674699544906616,2.6054675579071045,-10.617456436157227,-5.140257358551025,1.4300756454467773,-2.2228245735168457
0.29944960004650056,1.1422193050384521,-2.283345937728882,-6.243924617767334,1.1573530435562134,3.242710828781128,-11.41362476348877,-6.121572971343994,0.9148613810539246,-1.6676639318466187
0.30244440003298223,1.8104321956634521,-1.775038719177246,-5.711112976074219,2.0750319957733154,3.9932000637054443,-11.86080265045166,-6.739322662353516,0.6226003170013428,-0.8207743167877197
0.30539420002605766,2.577078342437744,-1.012678861618042,-4.940991401672363,3.062911033630371,4.723262786865234,-12.03064250946045,-7.049996376037598,0.4511735737323761,0.1922294795513153
0.30833989998791367,3.2633471488952637,-0.12695585191249847,-4.044431209564209,3.972468137741089,5.308617115020752,-11.991602897644043,-7.129108905792236,0.3023020625114441,1.2208671569824219
0.3113993000006303,3.720064640045166,0.7474300861358643,-3.148183584213257,4.675954341888428,5.652654647827148,-11.799105644226074,-7.059169769287109,0.09985025227069855,2.1135284900665283
0.3139756000600755,3.850979804992676,1.4908661842346191,-2.374769687652588,5.08351993560791,5.698768615722656,-11.487466812133789,-6.917242050170898,-0.19970084726810455,2.7395689487457275
0.31702299998141825,3.6295011043548584,2.0207931995391846,-1.8159387111663818,5.158722877502441,5.439731121063232,-11.065258979797363,-6.760209083557129,-0.6045878529548645,3.01861834526062
0.32011339999735355,3.097247362136841,2.300994873046875,-1.5037293434143066,4.922189712524414,4.914588451385498,-10.514713287353516,-6.619067668914795,-1.0947656631469727,2.9375383853912354
0.3227532999590039,2.3418469429016113,2.3340961933135986,-1.4095828533172607,4.4387054443359375,4.194953441619873,-9.808661460876465,-6.504665374755859,-1.6398791074752808,2.5488996505737305
0.32526119996327907,1.4684772491455078,2.1456475257873535,-1.4560620784759521,3.7953460216522217,3.367130756378174,-8.930811882019043,-6.420289516448975,-2.2145209312438965,1.9514802694320679
0.3283291000407189,0.5713571310043335,1.7686374187469482,-1.5411617755889893,3.0799386501312256,2.512636423110962,-7.89005184173584,-6.3722052574157715,-2.8064608573913574,1.266055703163147
0.33130109997000545,-0.2801496684551239,1.2330238819122314,-1.5703535079956055,2.363041877746582,1.699111819267273,-6.728403568267822,-6.37297248840332,-3.4111509323120117,0.6020177006721497
0.3336464000167325,-1.0468418598175049,0.5664790868759155,-1.4857372045516968,1.6906793117523193,0.9759103059768677,-5.516301155090332,-6.435431480407715,-4.0197343826293945,0.03823091834783554
0.3366511999629438,-1.7009068727493286,-0.19233886897563934,-1.2719364166259766,1.0922200679779053,0.38248777389526367,-4.331717491149902,-6.555366516113281,-4.598312854766846,-0.38045719265937805
0.33959780004806817,-2.208494186401367,-0.9796699285507202,-0.9504039287567139,0.592323899269104,-0.04241025820374489,-3.235973834991455,-6.693846702575684,-5.075721740722656,-0.636485755443573
0.34263089997693896,-2.51910662651062,-1.7003525495529175,-0.5600380301475525,0.22240185737609863,-0.2565366327762604,-2.251952648162842,-6.768870830535889,-5.34660530090332,-0.7264052629470825
0.3456327000167221,-2.567387580871582,-2.234586238861084,-0.12857846915721893,0.02523069642484188,-0.21797281503677368,-1.3528001308441162,-6.662625312805176,-5.291069984436035,-0.6433016061782837
0.34891449997667223,-2.2892801761627197,-2.4597387313842773,0.3457811176776886,0.04836342856287956,0.1041298359632492,-0.46905165910720825,-6.244377613067627,-4.803938388824463,-0.3715999722480774
0.35174860002007335,-1.6521974802017212,-2.2896158695220947,0.8900395631790161,0.3225077688694,0.7078510522842407,0.4836520552635193,-5.412173271179199,-3.8363759517669678,0.09724307060241699
0.35469139995984733,-0.6808846592903137,-1.7020015716552734,1.5446783304214478,0.8433548212051392,1.5440857410430908,1.574914813041687,-4.1260247230529785,-2.4169981479644775,0.7536773085594177
0.35758770001120865,0.5304417014122009,-0.7560628056526184,2.3367271423339844,1.557818055152893,2.5125110149383545,2.830824851989746,-2.431036949157715,-0.6606414318084717,1.5555611848831177
0.3607254000380635,1.8308252096176147,0.4163731336593628,3.2590694427490234,2.3665788173675537,3.4750969409942627,4.222487449645996,-0.45426133275032043,1.2540512084960938,2.4276528358459473
0.3630157000152394,3.042976140975952,1.6401580572128296,4.256342887878418,3.140176296234131,4.282135009765625,5.668726921081543,1.6198844909667969,3.1214685440063477,3.271756172180176
0.3659969000145793,3.998548984527588,2.735731840133667,5.2317986488342285,3.744997262954712,4.799316883087158,7.0571370124816895,3.588257312774658,4.74976110458374,3.988729476928711
0.3689567999681458,4.579472064971924,3.5614418983459473,6.073315143585205,4.074744701385498,4.940170764923096,8.275174140930176,5.274491310119629,6.000532150268555,4.5092668533325195
0.37201950000599027,4.739130020141602,4.037994384765625,6.681185245513916,4.071385860443115,4.680561065673828,9.235971450805664,6.560152530670166,6.807609558105469,4.804615497589111
0.37499130005016923,4.505993843078613,4.154746055603027,6.999037265777588,3.7360265254974365,4.059652805328369,9.897266387939453,7.400611877441406,7.1778483390808105,4.896261215209961
0.3782255999976769,3.9668869972229004,3.955134630203247,7.023453712463379,3.1212754249572754,3.165976047515869,10.262993812561035,7.819058895111084,7.174026012420654,4.833856582641602
0.3809313999954611,3.2474684715270996,3.5180530548095703,6.805829048156738,2.3188836574554443,2.119264841079712,10.378496170043945,7.891643524169922,6.896002769470215,4.676494598388672
0.3839410999789834,2.48252010345459,2.934617042541504,6.435480117797852,1.4383071660995483,1.0479425191879272,10.316739082336426,7.725955486297607,6.4578680992126465,4.470000267028809
0.3869268000125885,1.7974700927734375,2.293747901916504,6.0121026039123535,0.5874372124671936,0.0723126009106636,10.161601066589355,7.4410505294799805,5.972213268280029,4.231621742248535
0.38988839997909963,1.2902520895004272,1.6747184991836548,5.623992443084717,-0.1434345692396164,-0.7111892104148865,9.994369506835938,7.151378631591797,5.539353847503662,3.9556784629821777
0.3929206000175327,1.0209578275680542,1.1444578170776367,5.330605506896973,-0.6931909322738647,-1.2390869855880737,9.882285118103027,6.955000877380371,5.237616062164307,3.626431465148926
0.39621090004220605,1.003282070159912,0.7553051710128784,5.156651496887207,-1.0390256643295288,-1.489764928817749,9.87022590637207,6.923573970794678,5.114523410797119,3.235698938369751
0.398898100014776,1.2037169933319092,0.5388874411582947,5.096024513244629,-1.197921872138977,-1.4858660697937012,9.97264289855957,7.090545654296875,5.178767681121826,2.7963180541992188
0.40202150004915893,1.5420479774475098,0.4966734051704407,5.119340419769287,-1.227277159690857,-1.2957032918930054,10.168065071105957,7.443389415740967,5.393355369567871,2.3415870666503906
0.4049160999711603,1.9070318937301636,0.5949310064315796,5.182220935821533,-1.2149698734283447,-1.0225539207458496,10.398625373840332,7.921273231506348,5.680757522583008,1.9132155179977417
0.4078721000114456,2.1809027194976807,0.7673467397689819,5.235172271728516,-1.2611862421035767,-0.7842254638671875,10.58051586151123,8.425023078918457,5.94007682800293,1.5426863431930542
0.4110985000152141,2.267705202102661,0.925020694732666,5.2203240394592285,-1.4570624828338623,-0.6895875930786133,10.611515998840332,8.8340482711792,6.0703887939453125,1.2351471185684204
0.4133675000630319,2.122654676437378,0.9805251955986023,5.080796718597412,-1.8568857908248901,-0.8090202808380127,10.396407127380371,9.036417961120605,6.001888275146484,0.964971125125885
0.4163539999863133,1.7684483528137207,0.8737199902534485,4.768903732299805,-2.458777904510498,-1.1541942358016968,9.872944831848145,8.95862865447998,5.718523979187012,0.6868799924850464
0.4193951999768615,1.2924021482467651,0.5891731977462769,4.251971244812012,-3.1989595890045166,-1.6726844310760498,9.024003028869629,8.583529472351074,5.265430450439453,0.35164937376976013
0.42237210005987436,0.8164664506912231,0.1589408963918686,3.5237433910369873,-3.964212656021118,-2.2634196281433105,7.88542366027832,7.952539920806885,4.732000350952148,-0.06928145885467529
0.42491489998064935,0.4666134715080261,-0.3448037803173065,2.616065740585327,-4.616727828979492,-2.7992119789123535,6.540750980377197,7.1526570320129395,4.226565361022949,-0.5686970949172974
0.4280143000651151,0.3250754177570343,-0.8373925685882568,1.596204400062561,-5.03204345703125,-3.167999505996704,5.099038600921631,6.285579204559326,3.8355188369750977,-1.1040154695510864
0.4309540999820456,0.4085788130760193,-1.245453119277954,0.5591857433319092,-5.1316328048706055,-3.297666549682617,3.668919563293457,5.437239170074463,3.595740556716919,-1.6072335243225098
0.4335082999896258,0.6634567975997925,-1.5279966592788696,-0.39088577032089233,-4.903776168823242,-3.175508975982666,2.3336944580078125,4.653677940368652,3.481478214263916,-2.0072271823883057
0.4365201999899,0.9867236614227295,-1.683045744895935,-1.1643030643463135,-4.402822971343994,-2.8452563285827637,1.134352445602417,3.933748722076416,3.4148991107940674,-2.2512123584747314
0.4393924999749288,1.2617413997650146,-1.7408031225204468,-1.709991693496704,-3.733663320541382,-2.390014410018921,0.06613507866859436,3.2383334636688232,3.292400360107422,-2.32405161857605
0.44243499997537583,1.398608684539795,-1.7469103336334229,-2.032607078552246,-3.0209248065948486,-1.9044667482376099,-0.9137560725212097,2.5137381553649902,3.021545648574829,-2.254603385925293
0.445562900044024,1.35201096534729,-1.7488365173339844,-2.1994621753692627,-2.3820228576660156,-1.474787712097168,-1.8730125427246094,1.709240436553955,2.5434348583221436,-2.1124088764190674
0.44838209997396916,1.1277574300765991,-1.7838807106018066,-2.3324315547943115,-1.9043853282928467,-1.1621390581130981,-2.886280059814453,0.7955090999603271,1.8476694822311401,-1.998124361038208
0.45153710001613945,0.7656717300415039,-1.8751291036605835,-2.5801496505737305,-1.6349807977676392,-0.9987603425979614,-4.015792369842529,-0.23145627975463867,0.9666755199432373,-2.0188376903533936
0.4542471000459045,0.31469082832336426,-2.032867908477783,-3.0809073448181152,-1.5807520151138306,-0.9923082590103149,-5.2956671714782715,-1.3535479307174683,-0.03999226912856102,-2.2623472213745117
0.4571715999627486,-0.19101618230342865,-2.2630696296691895,-3.9300379753112793,-1.7197633981704712,-1.1357938051223755,-6.726840972900391,-2.5448837280273438,-1.1089427471160889,-2.7795896530151367
0.46018120006192476,-0.7413600087165833,-2.5672292709350586,-5.142222881317139,-2.0100209712982178,-1.4137624502182007,-8.268674850463867,-3.777672290802002,-2.1882877349853516,-3.5651984214782715
0.4627783000469208,-1.3401850461959839,-2.9362270832061768,-6.633418083190918,-2.3928439617156982,-1.800276279449463,-9.836545944213867,-5.021185398101807,-3.238116979598999,-4.544733047485352
0.4657271000323817,-1.9882240295410156,-3.343834161758423,-8.224515914916992,-2.7975170612335205,-2.256068229675293,-11.306979179382324,-6.236904144287109,-4.2279486656188965,-5.582584857940674
0.46885359997395426,-2.6534669399261475,-3.734699010848999,-9.665922164916992,-3.1373183727264404,-2.718311071395874,-12.524703025817871,-7.362077713012695,-5.116057395935059,-6.495744228363037
0.47169619996566325,-3.2633183002471924,-4.025075435638428,-10.685860633850098,-3.317622423171997,-3.102510929107666,-13.32299518585205,-8.306714057922363,-5.842764854431152,-7.091553211212158
0.47466079995501786,-3.7132108211517334,-4.112624645233154,-11.044718742370605,-3.247553586959839,-3.3144948482513428,-13.547045707702637,-8.957901000976562,-6.331656455993652,-7.200872421264648
0.4778234000550583,-3.8891990184783936,-3.898271083831787,-10.59355640411377,-2.860475778579712,-3.266376256942749,-13.086524963378906,-9.199047088623047,-6.499354362487793,-6.722419261932373
0.48068280005827546,-3.711216449737549,-3.316798210144043,-9.314676284790039,-2.1382498741149902,-2.9076108932495117,-11.903922080993652,-8.941984176635742,-6.283031463623047,-5.652811527252197
0.4828530000522733,-3.165872097015381,-2.368258237838745,-7.337069511413574,-1.1319266557693481,-2.2487151622772217,-10.058174133300781,-8.16154956817627,-5.66688346862793,-4.09735631942749
0.48593179997988045,-2.32635498046875,-1.1329420804977417,-4.917914390563965,0.03439822793006897,-1.373153805732727,-7.7057576179504395,-6.917549133300781,-4.700639247894287,-2.2568788528442383
0.48888479999732226,-1.3436996936798096,0.23238340020179749,-2.3896868228912354,1.1798174381256104,-0.4304199814796448,-5.078882694244385,-5.353919506072998,-3.4995415210723877,-0.3880153000354767
0.49184200004674494,-0.4106289744377136,1.522678256034851,-0.09137221425771713,2.102613687515259,0.39398103952407837,-2.4432437419891357,-3.6734514236450195,-2.2246556282043457,1.2482348680496216
0.494947100058198,0.2916821241378784,2.533184051513672,1.7078274488449097,2.630396842956543,0.9238760471343994,-0.041548945009708405,-2.0899245738983154,-1.0436569452285767,2.4481489658355713
0.4978461000137031,0.6493046879768372,3.113743782043457,2.8700785636901855,2.669645071029663,1.041550636291504,1.9643200635910034,-0.7715827822685242,-0.08470137417316437,3.1129097938537598
0.500811200006865,0.6548514366149902,3.217329740524292,3.4196324348449707,2.2403485774993896,0.729518711566925,3.533386707305908,0.20940542221069336,0.605033814907074,3.2730209827423096
0.50377099995967,0.41844674944877625,2.9201104640960693,3.530553102493286,1.483096718788147,0.08585748076438904,4.75181245803833,0.8977470993995667,1.078252911567688,3.081850528717041
0.5066704000346363,0.13732923567295074,2.404968500137329,3.4724440574645996,0.6267464756965637,-0.6945488452911377,5.800189018249512,1.4401651620864868,1.474317193031311,2.770577907562256
0.5097218999871984,0.040373675525188446,1.9154331684112549,3.5324931144714355,-0.06779376417398453,-1.3659782409667969,6.891731262207031,2.0378940105438232,1.978776216506958,2.585711717605591
0.5125254000304267,0.31994593143463135,1.6867761611938477,3.9333391189575195,-0.37767812609672546,-1.6956241130828857,8.198192596435547,2.8810501098632812,2.7654144763946533,2.719115972518921
0.5154966999543831,1.0723966360092163,1.8766534328460693,4.769455432891846,-0.18201309442520142,-1.5269168615341187,9.784904479980469,4.080939292907715,3.9360456466674805,3.250521659851074
0.5185270999791101,2.264439821243286,2.51518177986145,5.970429420471191,0.501488983631134,-0.8246355056762695,11.568361282348633,5.625643730163574,5.479121208190918,4.120603084564209
0.5214811000041664,3.741253137588501,3.497858762741089,7.338302135467529,1.52347731590271,0.31728658080101013,13.342771530151367,7.379868030548096,7.265018939971924,5.1510138511657715
0.5243334999540821,5.263932704925537,4.61161470413208,8.591836929321289,2.642151117324829,1.6984673738479614,14.822895050048828,9.115042686462402,9.071063995361328,6.08759069442749
0.5271559000248089,6.577847480773926,5.601271152496338,9.456652641296387,3.5958616733551025,3.0704686641693115,15.732946395874023,10.578463554382324,10.642398834228516,6.68063497543335
0.5313648000592366,7.477315902709961,6.242168426513672,9.743376731872559,4.175118923187256,4.202208995819092,15.888075828552246,11.56230640411377,11.75550365447998,6.755070686340332
0.5342889999737963,7.852006912231445,6.4030537605285645,9.398691177368164,4.276830673217773,4.935037612915039,15.250985145568848,11.960843086242676,12.272854804992676,6.259064674377441
0.5365925000514835,7.706872463226318,6.0808305740356445,8.518417358398438,3.926396369934082,5.219273090362549,13.947359085083008,11.795467376708984,12.171928405761719,5.278138637542725
0.5395785999717191,7.145238399505615,5.392145156860352,7.313579082489014,3.258122205734253,5.111328601837158,12.228331565856934,11.197165489196777,11.53594970703125,4.007112503051758
0.5425461999839172,6.325445652008057,4.531282424926758,6.0476908683776855,2.4675533771514893,4.744678974151611,10.400075912475586,10.3589448928833,10.518059730529785,2.692692518234253
0.545624400023371,5.407402038574219,3.707677125930786,4.958694934844971,1.7484111785888672,4.2780680656433105,8.73795223236084,9.473084449768066,9.288400650024414,1.563062071800232
0.548536799964495,4.513887882232666,3.08740496635437,4.196410655975342,1.2424792051315308,3.8513739109039307,7.417830944061279,8.677291870117188,7.989902973175049,0.772367537021637
0.551510600023903,3.702552556991577,2.74531626701355,3.7851266860961914,1.0049443244934082,3.5445361137390137,6.473793983459473,8.018136024475098,6.704592704772949,0.36504894495010376
0.5544203000608832,2.9647653102874756,2.650773525238037,3.6251556873321533,1.0029938220977783,3.3639020919799805,5.803005695343018,7.447817802429199,5.446617126464844,0.27970564365386963
0.5574206999735907,2.24766206741333,2.6837656497955322,3.5267553329467773,1.1366195678710938,3.251621723175049,5.204174995422363,6.850127220153809,4.179512977600098,0.37433698773384094
0.5604305999586359,1.4835989475250244,2.6760520935058594,3.270909547805786,1.278544545173645,3.1150360107421875,4.444187164306641,6.084033012390137,2.8457462787628174,0.4780848026275635
0.5632565000560135,0.6164871454238892,2.4592466354370117,2.666929244995117,1.3098351955413818,2.8578124046325684,3.320690393447876,5.027036666870117,1.3956209421157837,0.43337300419807434
0.5662378000561148,-0.3712153434753418,1.9153480529785156,1.6047636270523071,1.1517672538757324,2.416842222213745,1.7151894569396973,3.6149840354919434,-0.18362851440906525,0.13356885313987732
0.569393299985677,-1.4557572603225708,1.009267807006836,0.08181245625019073,0.7815428972244263,1.7815271615982056,-0.3806675970554352,1.8607242107391357,-1.8577126264572144,-0.45953094959259033
0.5722315000602975,-2.567922830581665,-0.19710631668567657,-1.7992206811904907,0.23525042831897736,1.0041300058364868,-2.8662450313568115,-0.142644464969635,-3.5414655208587646,-1.3143889904022217
0.5751984000671655,-3.609234571456909,-1.5590808391571045,-3.858052968978882,-0.40519946813583374,0.18595652282238007,-5.561171054840088,-2.240757942199707,-5.113864421844482,-2.3467345237731934
0.5783437000354752,-4.462082386016846,-2.875845193862915,-5.876774311065674,-1.026666283607483,-0.5377017855644226,-8.242098808288574,-4.242963790893555,-6.433043003082275,-3.437053918838501
0.5812120999908075,-5.015278339385986,-3.9388842582702637,-7.64991569519043,-1.511458396911621,-1.0348808765411377,-10.689626693725586,-5.958797931671143,-7.366886138916016,-4.457871913909912
0.5839308999711648,-5.177706241607666,-4.574228286743164,-9.022377014160156,-1.758345365524292,-1.199812650680542,-12.726116180419922,-7.230942249298096,-7.8146796226501465,-5.292530536651611
0.5869082000572234,-4.89772367477417,-4.679852485656738,-9.912690162658691,-1.7028781175613403,-0.9788110256195068,-14.238911628723145,-7.960298538208008,-7.728750228881836,-5.852858066558838
0.5898524000076577,-4.178219795227051,-4.248733043670654,-10.320255279541016,-1.3342844247817993,-0.38490885496139526,-15.192706108093262,-8.12667465209961,-7.131019592285156,-6.094985008239746
0.592839700053446,-3.082956314086914,-3.368276357650757,-10.309528350830078,-0.6992473006248474,0.5047163963317871,-15.621500968933105,-7.791892051696777,-6.114541530609131,-6.020437240600586
0.5959139000624418,-1.7358297109603882,-2.2025251388549805,-9.988446235656738,0.10269194841384888,1.5599303245544434,-15.612367630004883,-7.090199947357178,-4.831823348999023,-5.6801581382751465
0.5988650000654161,-0.3059711158275604,-0.9589329957962036,-9.480042457580566,0.9358156323432922,2.622133493423462,-15.280089378356934,-6.204529285430908,-3.469928026199341,-5.166859149932861
0.6019900999963284,1.018484115600586,0.1533680558204651,-8.894693374633789,1.6549533605575562,3.5330429077148438,-14.739588737487793,-5.330876350402832,-2.2171785831451416,-4.594058513641357
0.6048316999804229,2.0608863830566406,0.958301842212677,-8.315556526184082,2.130915403366089,4.160153388977051,-14.086199760437012,-4.643123149871826,-1.2303071022033691,-4.078013896942139
0.607784099993296,2.687920093536377,1.3414148092269897,-7.788638114929199,2.274226665496826,4.416995048522949,-13.379992485046387,-4.257786750793457,-0.6078850626945496,-3.712444305419922
0.6110999999800697,2.8301477432250977,1.2602994441986084,-7.327082633972168,2.0464258193969727,4.269613265991211,-12.646273612976074,-4.217578887939453,-0.3817749321460724,-3.5526883602142334
0.6145798000507057,2.492856025695801,0.7452405095100403,-6.913971424102783,1.4641810655593872,3.735820770263672,-11.878252029418945,-4.48428201675415,-0.5179572105407715,-3.602189302444458
0.6172596999676898,1.7475063800811768,-0.11659307777881622,-6.516186714172363,0.586855947971344,2.8731689453125,-11.05278491973877,-4.956753730773926,-0.9360653758049011,-3.817247152328491
0.6203241000184789,0.7151710391044617,-1.1983555555343628,-6.090806484222412,-0.4948566257953644,1.7671679258346558,-10.138599395751953,-5.49392032623291,-1.5270204544067383,-4.117431640625
0.6228959000436589,-0.4594176709651947,-2.356356382369995,-5.595657825469971,-1.6763296127319336,0.5164173245429993,-9.110456466674805,-5.947929859161377,-2.175104856491089,-4.403624534606934
0.6253853000234812,-1.631798267364502,-3.447805166244507,-4.993345260620117,-2.850841760635376,-0.7764914631843567,-7.949735164642334,-6.192284107208252,-2.769641637802124,-4.57919454574585
0.6287925000069663,-2.672548770904541,-4.34587287902832,-4.255875110626221,-3.916203260421753,-2.0085391998291016,-6.644103527069092,-6.1394877433776855,-3.210174083709717,-4.567218780517578
0.6313232999527827,-3.47936749458313,-4.949131011962891,-3.3583672046661377,-4.77937650680542,-3.0802690982818604,-5.178426265716553,-5.747418403625488,-3.4086358547210693,-4.314803123474121
0.6337530000600964,-3.9739315509796143,-5.187943935394287,-2.282670021057129,-5.359100818634033,-3.895141124725342,-3.5337889194488525,-5.01359748840332,-3.2879345417022705,-3.7972609996795654
0.6367369999643415,-4.103497505187988,-5.027472972869873,-1.0131946802139282,-5.591409683227539,-4.368170738220215,-1.685611367225647,-3.9634974002838135,-2.7867228984832764,-3.013582229614258
0.6396888999734074,-3.8409485816955566,-4.471275806427002,0.4579700827598572,-5.438723564147949,-4.435901165008545,0.38495495915412903,-2.6413753032684326,-1.8718303442001343,-1.9824914932250977
0.642680500051938,-3.1924052238464355,-3.5633254051208496,2.1187379360198975,-4.901767730712891,-4.073636054992676,2.672311782836914,-1.1069879531860352,-0.5543326735496521,-0.7460343241691589
0.6459544999524951,-2.2008588314056396,-2.385816812515259,3.927584171295166,-4.026425838470459,-3.306096076965332,5.129100799560547,0.5662099719047546,1.1004968881607056,0.6313406229019165
0.6487345000496134,-0.9543015360832214,-1.054815411567688,5.796549320220947,-2.9070613384246826,-2.217458486557007,7.64876127243042,2.284902811050415,2.9681100845336914,2.054905414581299
0.6518351000268012,0.4187580943107605,0.2905164659023285,7.587775707244873,-1.679419994354248,-0.9460892677307129,10.06554889678955,3.9365336894989014,4.876045227050781,3.399477958679199
0.6546714999713004,1.7667676210403442,1.5091431140899658,9.126368522644043,-0.4974401593208313,0.3365394175052643,12.175758361816406,5.400457382202148,6.632937431335449,4.524958610534668
0.6577053000219166,2.938333034515381,2.476435661315918,10.22338581085205,0.49064573645591736,1.4558457136154175,13.769695281982422,6.56301736831665,8.062128067016602,5.292447090148926
0.6609050000552088,3.8176286220550537,3.1111347675323486,10.723258972167969,1.1764122247695923,2.2721240520477295,14.684760093688965,7.346105575561523,9.043547630310059,5.6009297370910645
0.6637407999951392,4.349670886993408,3.391496181488037,10.546539306640625,1.5141983032226562,2.711063861846924,14.848365783691406,7.73019552230835,9.54124641418457,5.41793966293335
0.6664660000242293,4.55924654006958,3.364992141723633,9.727028846740723,1.5349889993667603,2.7841262817382812,14.309556007385254,7.770277976989746,9.617108345031738,4.802369117736816
0.6693243000190705,4.5439252853393555,3.137279748916626,8.418243408203125,1.338505506515503,2.5839180946350098,13.236671447753906,7.5876922607421875,9.416004180908203,3.900601863861084
0.6721945999888703,4.451996803283691,2.851860523223877,6.87223482131958,1.0706899166107178,2.2594733238220215,11.886982917785645,7.346743583679199,9.13332748413086,2.926034450531006
0.6754508999874815,4.44503116607666,2.6574347019195557,5.385920524597168,0.8869702219963074,1.9783165454864502,10.550517082214355,7.214797496795654,8.968807220458984,2.108884572982788
0.6783036000560969,4.65105676651001,2.672624349594116,4.230554580688477,0.9124684929847717,1.8800365924835205,9.481061935424805,7.3164849281311035,9.0745849609375,1.6416574716567993
0.6812103999545798,5.1323561668396,2.9581263065338135,3.58418869972229,1.2093853950500488,2.0412304401397705,8.838884353637695,7.699901103973389,9.518043518066406,1.6252700090408325
0.6838752999901772,5.863515377044678,3.5029544830322266,3.4894676208496094,1.7608506679534912,2.455508232116699,8.657075881958008,8.321084976196289,10.261967658996582,2.0432138442993164
0.6868844999698922,6.735301971435547,4.229636192321777,3.8489766120910645,2.476593255996704,3.039994716644287,8.843766212463379,9.057093620300293,11.171942710876465,2.7669012546539307
0.689895199961029,7.575052738189697,5.012484550476074,4.455491065979004,3.214986801147461,3.656219482421875,9.214056015014648,9.735424041748047,12.043241500854492,3.5898938179016113
0.6929009000305086,8.187942504882812,5.711676597595215,5.058784008026123,3.823439836502075,4.150174617767334,9.548319816589355,10.182442665100098,12.647551536560059,4.289271831512451
0.6962928000139073,8.399801254272461,6.204432964324951,5.431493282318115,4.176841735839844,4.389731407165527,9.648662567138672,10.263775825500488,12.781133651733398,4.683567047119141
0.6988461000146344,8.094991683959961,6.41091775894165,5.423154354095459,4.208270072937012,4.294434070587158,9.381840705871582,9.912952423095703,12.304564476013184,4.677399635314941
0.7019790000049397,7.241914749145508,6.307440280914307,4.9889092445373535,3.9239816665649414,3.8510115146636963,8.698802947998047,9.137914657592773,11.16849422454834,4.279447555541992
0.7048108000308275,5.900374889373779,5.924896717071533,4.180696964263916,3.397397994995117,3.110821008682251,7.626898765563965,8.008111953735352,9.419403076171875,3.585500717163086
0.7078273000661284,4.2050676345825195,5.333729267120361,3.11517596244812,2.746391773223877,2.17055606842041,6.242854595184326,6.6266045570373535,7.182886123657227,2.7409069538116455
0.7112101999809965,2.3382177352905273,4.622877597808838,1.9263575077056885,2.1020596027374268,1.147741436958313,4.638271331787109,5.100241184234619,4.635372638702393,1.8923395872116089
0.7141130999661982,0.49296608567237854,3.8753063678741455,0.7230310440063477,1.5759594440460205,0.1556379795074463,2.8903002738952637,3.515744686126709,1.970383644104004,1.1466188430786133
0.7168155000545084,-1.1651508808135986,3.1510462760925293,-0.4348303973674774,1.2367758750915527,-0.7180480360984802,1.0489518642425537,1.9292851686477661,-0.6342443227767944,0.5491247773170471
0.7198956999927759,-2.523411512374878,2.478755235671997,-1.5383672714233398,1.1011656522750854,-1.421319603919983,-0.8620613813400269,0.3701345920562744,-3.039660692214966,0.0856580138206482
0.722659399965778,-3.5323774814605713,1.8579174280166626,-2.6173882484436035,1.1399096250534058,-1.934818983078003,-2.8336760997772217,-1.1461975574493408,-5.154022216796875,-0.29642221331596375
0.7256255999673158,-4.204672336578369,1.268043041229248,-3.712235927581787,1.2920385599136353,-2.26631236076355,-4.850087642669678,-2.6051394939422607,-6.935397148132324,-0.6652335524559021
0.728951400029473,-4.595561981201172,0.6856814622879028,-4.8476881980896,1.489558219909668,-2.4358022212982178,-6.874317169189453,-3.9807968139648438,-8.380135536193848,-1.070828914642334
0.7316370999906212,-4.783936023712158,0.096574567258358,-6.016641139984131,1.6732877492904663,-2.4691519737243652,-8.84310245513916,-5.23711633682251,-9.512694358825684,-1.5335168838500977
0.7346756999613717,-4.850032806396484,-0.49183186888694763,-7.170624732971191,1.8084449768066406,-2.3883397579193115,-10.665262222290039,-6.331066131591797,-10.370512008666992,-2.038800001144409
0.7376153999939561,-4.861209869384766,-1.0519027709960938,-8.228514671325684,1.8849709033966064,-2.2145819664001465,-12.238045692443848,-7.22633171081543,-10.99771499633789,-2.5446267127990723
0.7406084999674931,-4.868316173553467,-1.5415170192718506,-9.092130661010742,1.912109375,-1.9736878871917725,-13.463913917541504,-7.90553092956543,-11.439677238464355,-2.9918644428253174
0.7436378999846056,-4.902324199676514,-1.9176764488220215,-9.668810844421387,1.9079220294952393,-1.6980706453323364,-14.26895809173584,-8.375028610229492,-11.736922264099121,-3.3222923278808594
0.7467186000430956,-4.980885028839111,-2.150439739227295,-9.890719413757324,1.8871628046035767,-1.433127999305725,-14.616870880126953,-8.663284301757812,-11.922782897949219,-3.488342046737671
0.7496128999628127,-5.106611728668213,-2.2363312244415283,-9.737777709960938,1.852860450744629,-1.2291209697723389,-14.52102279663086,-8.81552505493164,-12.018413543701172,-3.467647075653076
0.7523833999875933,-5.26795768737793,-2.2001709938049316,-9.2411527633667,1.7948304414749146,-1.1313700675964355,-14.040708541870117,-8.877269744873047,-12.02621078491211,-3.2656750679016113
0.7554946000454947,-5.435486316680908,-2.0900847911834717,-8.480257987976074,1.6962025165557861,-1.1654455661773682,-13.270735740661621,-8.881629943847656,-11.926931381225586,-2.916245937347412
0.7584064999828115,-5.560385227203369,-1.963931918144226,-7.567512512207031,1.5421360731124878,-1.3241804838180542,-12.322676658630371,-8.838556289672852,-11.679738998413086,-2.4785425662994385
0.7617443000199273,-5.573460102081299,-1.8693195581436157,-6.618661403656006,1.3342417478561401,-1.5595699548721313,-11.298967361450195,-8.729921340942383,-11.228090286254883,-2.01855731010437
0.7644322999985889,-5.400458812713623,-1.8297237157821655,-5.724126815795898,1.0960744619369507,-1.7909224033355713,-10.269933700561523,-8.51508903503418,-10.51604175567627,-1.5935062170028687
0.7674909000052139,-4.975510120391846,-1.8361085653305054,-4.926969051361084,0.873810350894928,-1.9206104278564453,-9.259745597839355,-8.142289161682129,-9.505763053894043,-1.23463773727417
0.7704118000110611,-4.261297225952148,-1.8501813411712646,-4.217402458190918,0.72658371925354,-1.8612807989120483,-8.245254516601562,-7.565870761871338,-8.196207046508789,-0.9387915134429932
0.7728481000522152,-3.2658677101135254,-1.818413496017456,-3.5416486263275146,0.71067214012146,-1.5603829622268677,-7.1692962646484375,-6.763689994812012,-6.634787082672119,-0.6699774861335754
0.7758307000622153,-2.052347421646118,-1.6949862241744995,-2.8322927951812744,0.8568783402442932,-1.021140456199646,-5.968400001525879,-5.753439426422119,-4.921241283416748,-0.3791150748729706
0.7789752000244334,-0.7372785806655884,-1.464958906173706,-2.0403501987457275,1.1524460315704346,-0.3096371591091156,-4.6050519943237305,-4.600818157196045,-3.1974780559539795,-0.029327576979994774
0.7818108999636024,0.5177655816078186,-1.1631909608840942,-1.1657758951187134,1.5288469791412354,0.44902464747428894,-3.0947210788726807,-3.4192395210266113,-1.6316132545471191,0.3765433430671692
0.7848032000474632,1.5337446928024292,-0.875572681427002,-0.2696835994720459,1.867465853691101,1.097920298576355,-1.5185966491699219,-2.3563804626464844,-0.39028406143188477,0.7816112637519836
0.7878003000514582,2.139667272567749,-0.7271328568458557,0.5357351899147034,2.0182018280029297,1.4762825965881348,-0.01614381931722164,-1.5707014799118042,0.3868134021759033,1.0806440114974976
0.7908047999953851,2.2126314640045166,-0.8479288220405579,1.1170144081115723,1.8373262882232666,1.4610326290130615,1.2467886209487915,-1.1939183473587036,0.6178776025772095,1.1442532539367676
0.793328300002031,1.7160348892211914,-1.324045181274414,1.3688122034072876,1.2341103553771973,1.0043082237243652,2.1289443969726562,-1.2867650985717773,0.3061647117137909,0.8667894601821899
0.7966153000015765,0.729236364364624,-2.1514892578125,1.2610788345336914,0.2143290489912033,0.16089439392089844,2.566335916519165,-1.8016362190246582,-0.4413498342037201,0.21577532589435577
0.7993035999825224,-0.5474077463150024,-3.2132925987243652,0.8628838062286377,-1.1007341146469116,-0.9111494421958923,2.6058731079101562,-2.569739580154419,-1.4179880619049072,-0.7407980561256409
0.8025372000411153,-1.815011978149414,-4.285053253173828,0.34145545959472656,-2.484370470046997,-1.9730814695358276,2.4109513759613037,-3.3184540271759033,-2.3417022228240967,-1.8304377794265747
0.8052946999669075,-2.732776403427124,-5.081112861633301,-0.07269039750099182,-3.650522232055664,-2.7569539546966553,2.2277719974517822,-3.725698709487915,-2.9065399169921875,-2.8068318367004395
0.808256300049834,-2.999715805053711,-5.330478668212891,-0.14412814378738403,-4.326846122741699,-3.034602165222168,2.321073055267334,-3.501890182495117,-2.852689266204834,-3.40783953666687
0.8113558000186458,-2.443701982498169,-4.8667731285095215,0.2966715693473816,-4.339119911193848,-2.6890273094177246,2.8905935287475586,-2.4832236766815186,-2.0427355766296387,-3.4308929443359375
0.8142688999651,-1.083853840827942,-3.6963679790496826,1.296791672706604,-3.6748297214508057,-1.7606229782104492,4.000574111938477,-0.6999218463897705,-0.5141311883926392,-2.7932465076446533
0.8172894000308588,0.841548502445221,-2.030280828475952,2.746274471282959,-2.5118343830108643,-0.4641276001930237,5.53691291809082,1.5960032939910889,1.4985175132751465,-1.5729962587356567
0.8202368000056595,2.915581464767456,-0.2486373484134674,4.392223358154297,-1.1877851486206055,0.8529954552650452,7.2183098793029785,3.970515489578247,3.601635694503784,-0.0007073896704241633
0.8232204000232741,4.645410060882568,1.1936888694763184,5.896018028259277,-0.1154167428612709,1.7954858541488647,8.665327072143555,5.912598133087158,5.33588981628418,1.5914183855056763
0.8257196999620646,5.59098482131958,1.8964420557022095,6.923282623291016,0.333274781703949,2.0279409885406494,9.506058692932129,6.973094940185547,6.29594087600708,2.854220390319824
0.828859300003387,5.4929375648498535,1.6372178792953491,7.234302520751953,-0.06018753722310066,1.3747020959854126,9.485025405883789,6.897220611572266,6.248783111572266,3.514512300491333
0.8317698000464588,4.354966640472412,0.45223450660705566,6.75815486907959,-1.286032795906067,-0.117666095495224,8.549192428588867,5.71264123916626,5.2105937004089355,3.4486420154571533
0.8347103999694809,2.4477341175079346,-1.3595054149627686,5.618699073791504,-3.0956485271453857,-2.184009552001953,6.873208999633789,3.7323367595672607,3.4511096477508545,2.7249093055725098
0.8377312000375241,0.2333921492099762,-3.3118979930877686,4.110104084014893,-5.063995838165283,-4.406530857086182,4.821921348571777,1.473605990409851,1.4214110374450684,1.5873589515686035
0.840678200009279,-1.7672513723373413,-4.867473125457764,2.6116089820861816,-6.705527305603027,-6.328202724456787,2.8471248149871826,-0.4901425540447235,-0.37455689907073975,0.3886178135871887
0.8436839999631047,-3.1289005279541016,-5.5920796394348145,1.486081838607788,-7.608674049377441,-7.577962398529053,1.3629742860794067,-1.6958683729171753,-1.5294610261917114,-0.503646731376648
0.8466852999990806,-3.6407482624053955,-5.281200885772705,0.972874641418457,-7.5506911277771,-7.9708099365234375,0.6265771985054016,-1.9280694723129272,-1.8524010181427002,-0.8128573894500732
0.8496566000394523,-3.3609466552734375,-4.016729831695557,1.1192905902862549,-6.554433345794678,-7.549165725708008,0.6650371551513672,-1.2789596319198608,-1.4230141639709473,-0.42936578392982483
0.8523050000658259,-2.584676504135132,-2.1360177993774414,1.777209997177124,-4.871754169464111,-6.556432723999023,1.2755656242370605,-0.1127285286784172,-0.5590956807136536,0.5660481452941895
0.8551806999603286,-1.741804599761963,-0.12888115644454956,2.649120569229126,-2.9043612480163574,-5.354130744934082,2.086989641189575,1.048007845878601,0.2834896445274353,1.9258054494857788
0.8581683000084013,-1.2577276229858398,1.5080803632736206,3.3841278553009033,-1.0847917795181274,-4.307234287261963,2.671565532684326,1.6820406913757324,0.6544737219810486,3.315626382827759
0.8619833999546245,-1.4246330261230469,2.4128026962280273,3.686687707901001,0.24315017461776733,-3.677628517150879,2.669947624206543,1.4236894845962524,0.24379315972328186,4.415182590484619
0.8641675000544637,-2.31795072555542,2.4502980709075928,3.4008331298828125,0.908622682094574,-3.556173801422119,1.8865268230438232,0.1612483710050583,-1.0301387310028076,5.0084147453308105
0.8671708999900147,-3.7845101356506348,1.7358556985855103,2.5505928993225098,0.9419975876808167,-3.85063099861145,0.3361220061779022,-1.9408135414123535,-3.003441572189331,5.040560722351074
0.8702239999547601,-5.500782489776611,0.5818816423416138,1.3191887140274048,0.543566107749939,-4.33052396774292,-1.7753612995147705,-4.503872394561768,-5.323906898498535,4.620591640472412
0.8726789000211284,-7.073487758636475,-0.6060168147087097,-0.01743054948747158,0.00789700448513031,-4.706661224365234,-4.121312618255615,-7.051945686340332,-7.556445121765137,3.9734935760498047
0.8756530999671668,-8.154206275939941,-1.4503730535507202,-1.180173635482788,-0.36892688274383545,-4.724939823150635,-6.35027551651001,-9.143567085266113,-9.304662704467773,3.3614673614501953
0.8788843000074849,-8.529582977294922,-1.704316258430481,-1.971081018447876,-0.3715059757232666,-4.239607334136963,-8.180130004882812,-10.483718872070312,-10.3123140335083,2.9957873821258545
0.881669900030829,-8.165785789489746,-1.3067995309829712,-2.3245558738708496,0.08528749644756317,-3.2492918968200684,-9.459667205810547,-10.98082447052002,-10.517494201660156,2.975327253341675
0.8846555000636727,-7.1983795166015625,-0.380942702293396,-2.313551425933838,0.9480763077735901,-1.8890926837921143,-10.18593978881836,-10.742490768432617,-10.048751831054688,3.2625253200531006
0.8876195000484586,-5.882135391235352,0.818742573261261,-2.1122963428497314,2.056824207305908,-0.3861939013004303,-10.475244522094727,-10.016194343566895,-9.171008110046387,3.706389904022217
0.8905954000074416,-4.50830078125,1.9901665449142456,-1.9348036050796509,3.199878692626953,1.009816288948059,-10.505163192749023,-9.10246467590332,-8.198984146118164,4.097041130065918
0.8931180000072345,-3.3251681327819824,2.874239683151245,-1.9598828554153442,4.178643226623535,2.097378969192505,-10.442120552062988,-8.2605619430542,-7.404865264892578,4.237720489501953
0.8962025999790058,-2.4824423789978027,3.3194477558135986,-2.278075933456421,4.856672286987305,2.7711377143859863,-10.386597633361816,-7.645406246185303,-6.9490742683410645,4.00834846496582
0.8991153000388294,-2.0065066814422607,3.3112359046936035,-2.8691282272338867,5.1860671043396,3.0400023460388184,-10.34563159942627,-7.279728889465332,-6.846925258636475,3.3931431770324707
0.9023707000305876,-1.8106590509414673,2.9617514610290527,-3.6083450317382812,5.207817554473877,3.0132322311401367,-10.2357177734375,-7.068176746368408,-6.978621006011963,2.4855661392211914
0.9051264000590891,-1.7370883226394653,2.4607579708099365,-4.307765960693359,5.0249924659729,2.8566808700561523,-9.921005249023438,-6.844971656799316,-7.1366119384765625,1.4524959325790405
0.9084176999749616,-1.6093637943267822,2.014939546585083,-4.768121242523193,4.765582084655762,2.7395527362823486,-9.260367393493652,-6.43237829208374,-7.090189456939697,0.48604828119277954
0.9118783000158146,-1.2839630842208862,1.786353588104248,-4.832528591156006,4.542243480682373,2.7843146324157715,-8.157195091247559,-5.695261001586914,-6.652139186859131,-0.2475510686635971
0.9151729999575764,-0.6841839551925659,1.855800747871399,-4.419667720794678,4.425782680511475,3.039097785949707,-6.588199138641357,-4.572120666503906,-5.72231912612915,-0.6411817073822021
0.918072700034827,0.18609009683132172,2.209136962890625,-3.542107105255127,4.432399272918701,3.4741599559783936,-4.615179061889648,-3.084906816482544,-4.305713176727295,-0.663553774356842
0.9210620999801904,1.2538342475891113,2.7571969032287598,-2.2960026264190674,4.529412746429443,4.003471851348877,-2.3677704334259033,-1.320516586303711,-2.4984233379364014,-0.35190463066101074
0.9237157000461593,2.408534526824951,3.3753740787506104,-0.8318423628807068,4.6562347412109375,4.523096084594727,-0.0098811574280262,0.6040526032447815,-0.44701501727104187,0.21262268722057343
0.9261299000354484,3.5342464447021484,3.9471051692962646,0.6831151843070984,4.746879577636719,4.946235656738281,2.3006293773651123,2.577073812484741,1.6950100660324097,0.9292647838592529
0.9292436999967322,4.545097351074219,4.401638984680176,2.1068429946899414,4.752504348754883,5.230077266693115,4.448958396911621,4.52316427230835,3.809074640274048,1.7031066417694092
0.9322127000195906,5.404744625091553,4.730520725250244,3.3497931957244873,4.652255058288574,5.381819248199463,6.384912014007568,6.415070056915283,5.831879138946533,2.4616432189941406
0.9351248999591917,6.11790657043457,4.976552963256836,4.384730339050293,4.450101852416992,5.438418388366699,8.1217622756958,8.261833190917969,7.74725341796875,3.1570513248443604
0.9381008000345901,6.720053195953369,5.2088212966918945,5.242249965667725,4.165764808654785,5.4427809715271,9.71920108795166,10.087846755981445,9.566248893737793,3.7610063552856445
0.9410784000065178,7.254143238067627,5.490304946899414,5.9871697425842285,3.8230140209198,5.41793155670166,11.251988410949707,11.906405448913574,11.298008918762207,4.261018753051758
0.9437593000475317,7.746201038360596,5.848171710968018,6.692023754119873,3.4385645389556885,5.351787567138672,12.778157234191895,13.695503234863281,12.92273235321045,4.652137756347656
0.9467585000675172,8.195069313049316,6.260498523712158,7.409428119659424,3.018889904022217,5.2014946937561035,14.312880516052246,15.389248847961426,14.383984565734863,4.932757377624512
0.949723600060679,8.566192626953125,6.65345573425293,8.141885757446289,2.557814121246338,4.905185699462891,15.80723762512207,16.87801742553711,15.590487480163574,5.095034599304199
0.9523215000517666,8.802815437316895,6.920517921447754,8.837055206298828,2.0431976318359375,4.408166885375977,17.155704498291016,18.029699325561523,16.43882942199707,5.123206615447998
0.9552992000244558,8.842995643615723,6.949783802032471,9.396749496459961,1.4623149633407593,3.6838836669921875,18.216415405273438,18.716798782348633,16.84073257446289,4.992100238800049
0.958300800062716,8.638094902038574,6.654334545135498,9.705353736877441,0.8110684752464294,2.747180700302124,18.849260330200195,18.850263595581055,16.75269317626953,4.675075531005859
0.9615314999828115,8.170182228088379,5.998230934143066,9.668743133544922,0.09896130859851837,1.6568629741668701,18.9556941986084,18.405168533325195,16.195091247558594,4.15444278717041
0.9639564000535756,7.458713531494141,5.008124351501465,9.245872497558594,-0.6491950154304504,0.504469096660614,18.5067195892334,17.43191909790039,15.252657890319824,3.434032678604126
0.9668706000084057,6.562960147857666,3.7784318923950195,8.481550216674805,-1.3894015550613403,-0.6001571416854858,17.56304931640625,16.05596351623535,14.06626033782959,2.5596563816070557
0.9698165999725461,5.573104381561279,2.4550864696502686,7.500452518463135,-2.0630111694335938,-1.54689359664917,16.261430740356445,14.454846382141113,12.803504943847656,1.6196236610412598
0.9728030000114813,4.598127841949463,1.2143208980560303,6.480576038360596,-2.601266384124756,-2.2394134998321533,14.781129837036133,12.827146530151367,11.627129554748535,0.7373747825622559
0.9758034000406042,3.750901460647583,0.23409196734428406,5.613890647888184,-2.9314868450164795,-2.60365629196167,13.306717872619629,11.357949256896973,10.664006233215332,0.05292605981230736
0.9790090000024065,3.1247308254241943,-0.34357282519340515,5.044405937194824,-2.9928183555603027,-2.601604700088501,11.976326942443848,10.180192947387695,9.975591659545898,-0.3163796067237854
0.9817937000188977,2.7762861251831055,-0.4435153901576996,4.8241658210754395,-2.751216173171997,-2.2359166145324707,10.851675987243652,9.349406242370605,9.544419288635254,-0.3089488446712494
0.9847566999960691,2.7058000564575195,-0.0793284922838211,4.895269870758057,-2.2131552696228027,-1.5597121715545654,9.910139083862305,8.834341049194336,9.274557113647461,0.05658967047929764
0.9877612000564113,2.848878860473633,0.6385303139686584,5.100045204162598,-1.4363332986831665,-0.6774885058403015,9.057690620422363,8.52001667022705,9.007088661193848,0.6788237690925598
0.9907371000153944,3.083090305328369,1.5197306871414185,5.231112003326416,-0.5245904326438904,0.2653004825115204,8.166180610656738,8.23403263092041,8.55463981628418,1.3987826108932495
0.9938750000437722,3.244405746459961,2.327746868133545,5.088868618011475,0.382536917924881,1.0996962785720825,7.114481449127197,7.781137466430664,7.739834308624268,2.035501003265381
0.9967881999909878,3.161620616912842,2.8302152156829834,4.540527820587158,1.1374777555465698,1.665636420249939,5.821839809417725,6.983256816864014,6.43625020980835,2.4364380836486816
0.9998139999806881,2.6964330673217773,2.8516499996185303,3.5561294555664062,1.6116909980773926,1.8457461595535278,4.266207695007324,5.7166852951049805,4.599119663238525,2.5120320320129395
1.003307900042273,1.7814335823059082,2.314877986907959,2.207197904586792,1.7229381799697876,1.595884919166565,2.478569984436035,3.937556743621826,2.2807071208953857,2.2481465339660645
1.0062524999957532,0.43826979398727417,1.2575479745864868,0.6337186098098755,1.450308084487915,0.9561882615089417,0.5198574066162109,1.6877186298370361,-0.3791450560092926,1.6954305171966553
1.0092250000452623,-1.220205307006836,-0.17514170706272125,-1.0047982931137085,0.8376832008361816,0.04419577866792679,-1.5431675910949707,-0.9117469191551208,-3.177091121673584,0.9400081634521484
1.0124471000162885,-3.0084750652313232,-1.7676665782928467,-2.5809288024902344,-0.01798434928059578,-0.9703816175460815,-3.6609859466552734,-3.684300661087036,-5.884079933166504,0.06696324795484543
1.0153444999596104,-4.712088108062744,-3.2860519886016846,-4.0304365158081055,-0.9903916120529175,-1.9087504148483276,-5.8079705238342285,-6.432063102722168,-8.290717124938965,-0.8662217855453491
1.017846400034614,-6.135137557983398,-4.534782409667969,-5.358170986175537,-1.95260488986969,-2.6264984607696533,-7.975986480712891,-8.971195220947266,-10.243959426879883,-1.8421008586883545
1.0208075999980792,-7.146133899688721,-5.403227806091309,-6.620591163635254,-2.8048856258392334,-3.048393487930298,-10.162238121032715,-11.166712760925293,-11.675620079040527,-2.876376152038574
1.0232802999671549,-7.706428050994873,-5.88741397857666,-7.893072605133057,-3.49367094039917,-3.1835005283355713,-12.35286808013916,-12.952220916748047,-12.609230041503906,-4.000982761383057
1.0263299000216648,-7.878662586212158,-6.0860419273376465,-9.235636711120605,-4.018060207366943,-3.1184027194976807,-14.516072273254395,-14.339513778686523,-13.151972770690918,-5.239033222198486
1.0293745000381023,-7.8083295822143555,-6.169960975646973,-10.669304847717285,-4.422512054443359,-2.9902963638305664,-16.60233497619629,-15.406754493713379,-13.468003273010254,-6.587500095367432
1.0324546999763697,-7.68452262878418,-6.333906650543213,-12.167316436767578,-4.776839733123779,-2.945560932159424,-18.551353454589844,-16.272212982177734,-13.739703178405762,-8.008419036865234
1.035384300048463,-7.691749572753906,-6.743651866912842,-13.658288955688477,-5.148721218109131,-3.0975587368011475,-20.298913955688477,-17.05766487121582,-14.125984191894531,-9.429823875427246
1.0383178000338376,-7.965488433837891,-7.493194580078125,-15.044217109680176,-5.580936431884766,-3.4976541996002197,-21.784521102905273,-17.853160858154297,-14.72757339477539,-10.756157875061035
1.041315200040117,-8.55836296081543,-8.576440811157227,-16.210948944091797,-6.071185111999512,-4.121133804321289,-22.94549560546875,-18.685283660888672,-15.560234069824219,-11.876784324645996
1.0444291000021622,-9.427105903625488,-9.886372566223145,-17.04659080505371,-6.568548679351807,-4.873236179351807,-23.714630126953125,-19.50566291809082,-16.550283432006836,-12.683477401733398
1.0472106999950483,-10.4442777633667,-11.23898983001709,-17.455400466918945,-6.985446453094482,-5.615078449249268,-24.019840240478516,-20.201305389404297,-17.549991607666016,-13.082658767700195
1.0502145000500605,-11.43140697479248,-12.417048454284668,-17.374414443969727,-7.225149631500244,-6.201549530029297,-23.791561126708984,-20.625642776489258,-18.373138427734375,-13.014162063598633
1.053186299977824,-12.20014476776123,-13.218321800231934,-16.784700393676758,-7.208498001098633,-6.514247417449951,-22.976764678955078,-20.6390323638916,-18.837404251098633,-12.460408210754395
1.0561991999857128,-12.594867706298828,-13.502287864685059,-15.72054672241211,-6.902600288391113,-6.4899773597717285,-21.560701370239258,-20.1505184173584,-18.809432983398438,-11.458575248718262
1.0591730000451207,-12.523796081542969,-13.219691276550293,-14.272395133972168,-6.3321661949157715,-6.1299357414245605,-19.585289001464844,-19.145002365112305,-18.234704971313477,-10.10165023803711
1.0624998999992386,-11.97408390045166,-12.418657302856445,-12.5739164352417,-5.57680082321167,-5.494649887084961,-17.15410804748535,-17.689762115478516,-17.150924682617188,-8.528888702392578
1.065186999971047,-11.006597518920898,-11.228796005249023,-10.778189659118652,-4.748834609985352,-4.683750152587891,-14.424448013305664,-15.91729736328125,-15.674736976623535,-6.900543689727783
1.0681574000045657,-9.741153717041016,-9.829840660095215,-9.03126335144043,-3.9657816886901855,-3.816302537918091,-11.583253860473633,-13.993671417236328,-13.976089477539062,-5.373861789703369
1.0711285000434145,-8.326597213745117,-8.411157608032227,-7.444914817810059,-3.321110963821411,-3.0047783851623535,-8.816967010498047,-12.080683708190918,-12.239166259765625,-4.073483943939209
1.0737030999734998,-6.915225982666016,-7.135841369628906,-6.07850456237793,-2.865661144256592,-2.340986490249634,-6.27932596206665,-10.304655075073242,-10.626779556274414,-3.069413185119629
1.0766222999664024,-5.639449596405029,-6.115328788757324,-4.934521675109863,-2.60227108001709,-1.8867708444595337,-4.068114757537842,-8.7378568649292,-9.252511978149414,-2.3672983646392822
1.0797317000105977,-4.601031303405762,-5.405344486236572,-3.982290267944336,-2.5022313594818115,-1.675742268562317,-2.2263259887695312,-7.404423713684082,-8.173918724060059,-1.9281001091003418
1.0830730999587104,-3.857724189758301,-5.005260944366455,-3.1728708744049072,-2.520021915435791,-1.7085062265396118,-0.744704008102417,-6.288590908050537,-7.389140605926514,-1.6765685081481934
1.0861661999952048,-3.424454927444458,-4.874225616455078,-2.465975522994995,-2.6172549724578857,-1.9568010568618774,0.41922131180763245,-5.355981349945068,-6.851752758026123,-1.5350220203399658
1.0890614000381902,-3.2762882709503174,-4.948898792266846,-1.8506594896316528,-2.7762811183929443,-2.3678035736083984,1.3180668354034424,-4.5716423988342285,-6.48823356628418,-1.4474003314971924
1.0920371999964118,-3.347853660583496,-5.153330326080322,-1.3439277410507202,-2.9991517066955566,-2.862461805343628,2.001265525817871,-3.904334783554077,-6.208637714385986,-1.391548991203308
1.095132700051181,-3.5436861515045166,-5.408133029937744,-0.9805878400802612,-3.2972638607025146,-3.347429037094116,2.5089666843414307,-3.325786828994751,-5.918857097625732,-1.3797650337219238
1.0980486000189558,-3.7500925064086914,-5.63594388961792,-0.7984835505485535,-3.6751163005828857,-3.7275102138519287,2.86700177192688,-2.8057758808135986,-5.529867172241211,-1.4438586235046387
1.1010428000008687,-3.848412275314331,-5.761857032775879,-0.8119123578071594,-4.113470554351807,-3.920119047164917,3.1007978916168213,-2.3018078804016113,-4.961513042449951,-1.6166287660598755
1.1035620999755338,-3.73752760887146,-5.718961238861084,-1.0019129514694214,-4.5632853507995605,-3.8745980262756348,3.23925518989563,-1.7593246698379517,-4.151485443115234,-1.9095969200134277
1.1065134999807924,-3.3478243350982666,-5.4531168937683105,-1.3052725791931152,-4.947698593139648,-3.5794482231140137,3.3248555660247803,-1.1160589456558228,-3.0628435611724854,-2.292454719543457
1.1095055000623688,-2.6538848876953125,-4.931150436401367,-1.6235618591308594,-5.178338050842285,-3.0641188621520996,3.4148542881011963,-0.31376317143440247,-1.690242052078247,-2.6928391456604004
1.113036400056444,-1.6761066913604736,-4.14888858795166,-1.8391386270523071,-5.177306652069092,-2.389277696609497,3.577019214630127,0.6860347986221313,-0.06458298861980438,-3.007695198059082
1.1157243000343442,-0.47985589504241943,-3.1345322132110596,-1.835595726966858,-4.898723602294922,-1.6311309337615967,3.8786065578460693,1.8885632753372192,1.7445921897888184,-3.1242761611938477
1.1187514000339434,0.847809374332428,-1.9453673362731934,-1.5241928100585938,-4.341032028198242,-0.8606293797492981,4.373447418212891,3.2619357109069824,3.6421959400177,-2.9495890140533447
1.1216824000002816,2.2115232944488525,-0.661366879940033,-0.8646938800811768,-3.552396059036255,-0.1305009126663208,5.08302640914917,4.736985206604004,5.516000747680664,-2.438619375228882
1.1246723000658676,3.5239341259002686,0.6289157271385193,0.12142197787761688,-2.620677947998047,0.5306460857391357,5.986583709716797,6.219471454620361,7.25347375869751,-1.6114941835403442
1.1275138000492007,4.7132649421691895,1.8408747911453247,1.350664734840393,-1.6559137105941772,1.1121267080307007,7.01461935043335,7.60517692565918,8.753487586975098,-0.5516560077667236
1.1302473000250757,5.727970123291016,2.902491807937622,2.6848864555358887,-0.7696969509124756,1.6142573356628418,8.052604675292969,8.796351432800293,9.938302040100098,0.6056939959526062
1.1331355000147596,6.528298854827881,3.7598111629486084,3.9525306224823,-0.05806305259466171,2.0312981605529785,8.956307411193848,9.713212013244629,10.754876136779785,1.7003040313720703
1.1361591999884695,7.076271057128906,4.37351655960083,4.974972724914551,0.41026413440704346,2.3422164916992188,9.573251724243164,10.299544334411621,11.17340087890625,2.577476739883423
1.1391090999823064,7.333338260650635,4.714049339294434,5.591951847076416,0.5974470973014832,2.5101513862609863,9.76831340789795,10.522626876831055,11.184372901916504,3.1134161949157715
1.1421288000419736,7.260679244995117,4.758264064788818,5.6888933181762695,0.49491775035858154,2.4881820678710938,9.448582649230957,10.369664192199707,10.795980453491211,3.23476243019104
1.1452193000586703,6.832092761993408,4.489474296569824,5.212420463562012,0.11976505070924759,2.2355098724365234,8.579029083251953,9.843046188354492,10.033110618591309,2.92513108253479
1.1480979999760166,6.047196388244629,3.9043238162994385,4.178832054138184,-0.4890066087245941,1.7316060066223145,7.190798282623291,8.959737777709961,8.940585136413574,2.2210216522216797
1.1510753000620753,4.954866409301758,3.028505325317383,2.6770100593566895,-1.266513705253601,0.9992687702178955,5.378716468811035,7.757249355316162,7.590899467468262,1.2081693410873413
1.1539043000666425,3.6579482555389404,1.92471182346344,0.854289174079895,-2.125713348388672,0.10810647904872894,3.285006523132324,6.296864032745361,6.082757949829102,0.004591095726937056
1.1568728999700397,2.308715581893921,0.6987587213516235,-1.100835919380188,-2.959303617477417,-0.827434778213501,1.077797770500183,4.667891979217529,4.53855562210083,-1.250443935394287
1.1598949000472203,1.0884215831756592,-0.5086451172828674,-2.983397960662842,-3.6492698192596436,-1.6627392768859863,-1.0731817483901978,2.9849798679351807,3.092991828918457,-2.412036180496216
1.1626575000118464,0.171841561794281,-1.5432965755462646,-4.6046833992004395,-4.085860729217529,-2.2497172355651855,-3.022386312484741,1.375807523727417,1.8732835054397583,-3.3483614921569824
1.165542499977164,-0.3086859881877899,-2.2652947902679443,-5.813565731048584,-4.187030792236328,-2.466374635696411,-4.663031578063965,-0.035468436777591705,0.9793985486030579,-3.953075885772705
1.1686641999986023,-0.29585152864456177,-2.5830938816070557,-6.525790691375732,-3.921281337738037,-2.244908571243286,-5.940268039703369,-1.151265263557434,0.464532732963562,-4.167316913604736
1.1715043999720365,0.17902083694934845,-2.4749228954315186,-6.729569911956787,-3.319462776184082,-1.5883076190948486,-6.847662925720215,-1.918692946434021,0.3250214457511902,-3.985107898712158
1.1742663000477478,0.9987878799438477,-1.9987986087799072,-6.484210968017578,-2.474025249481201,-0.5786237716674805,-7.418274402618408,-2.3385977745056152,0.4992275536060333,-3.4594643115997314
1.1775445999810472,1.989001750946045,-1.280765175819397,-5.90102481842041,-1.5221385955810547,0.6394569873809814,-7.708953380584717,-2.462543249130249,0.8789771199226379,-2.692283868789673
1.1803481000242755,2.953758955001831,-0.4897131025791168,-5.117671489715576,-0.6198654770851135,1.881622552871704,-7.782349586486816,-2.379026174545288,1.3296310901641846,-1.81892728805542
1.1829788000322878,3.7154130935668945,0.19658471643924713,-4.26850700378418,0.08907190710306168,2.956629991531372,-7.691991329193115,-2.193655014038086,1.7135289907455444,-0.9836617112159729
1.1857740000123158,4.143576145172119,0.6245781183242798,-3.464813709259033,0.49789416790008545,3.697438955307007,-7.476895809173584,-2.009312629699707,1.9107271432876587,-0.3198607265949249
1.1887406000168994,4.172266483306885,0.6924229860305786,-2.7827558517456055,0.5523957014083862,3.9883158206939697,-7.160341739654541,-1.9093190431594849,1.8365185260772705,0.06990444660186768
1.1917252000421286,3.8027942180633545,0.3667025566101074,-2.260674476623535,0.2556333839893341,3.782087802886963,-6.752445697784424,-1.9448916912078857,1.4543684720993042,0.12911531329154968
1.1947645000182092,3.0914673805236816,-0.3169693052768707,-1.9092108011245728,-0.34022843837738037,3.103728771209717,-6.258944511413574,-2.1308960914611816,0.7794694900512695,-0.14873060584068298
1.197710599983111,2.132385015487671,-1.2632673978805542,-1.722556710243225,-1.148451328277588,2.0434212684631348,-5.686715602874756,-2.4459798336029053,-0.12535957992076874,-0.724107027053833
1.2006695000454783,1.0440667867660522,-2.3295910358428955,-1.676041841506958,-2.0578927993774414,0.745162844657898,-5.03893518447876,-2.832206964492798,-1.154565691947937,-1.5090378522872925
1.2037122000474483,-0.04653219133615494,-3.3478713035583496,-1.7293111085891724,-2.9489076137542725,-0.6150087714195251,-4.313528060913086,-3.2012505531311035,-2.174663543701172,-2.379399538040161
1.2066877000033855,-1.0187829732894897,-4.1530351638793945,-1.8266769647598267,-3.7090554237365723,-1.8570466041564941,-3.5025346279144287,-3.450406551361084,-3.04753041267395,-3.1948180198669434
1.2096939999610186,-1.7795662879943848,-4.608180046081543,-1.8955234289169312,-4.245748043060303,-2.826815605163574,-2.59031343460083,-3.4813828468322754,-3.656386137008667,-3.8148159980773926
1.2126280000666156,-2.2697548866271973,-4.6304802894592285,-1.859207034111023,-4.501676559448242,-3.4195759296417236,-1.5645396709442139,-3.226111888885498,-3.9293739795684814,-4.12760066986084
1.2155334999551997,-2.4834768772125244,-4.213376998901367,-1.6597492694854736,-4.470232963562012,-3.6040937900543213,-0.4318564832210541,-2.6740057468414307,-3.8629331588745117,-4.074676036834717
1.218518599984236,-2.4707305431365967,-3.431143283843994,-1.2781345844268799,-4.1993608474731445,-3.425938129425049,0.7717143297195435,-1.8854511976242065,-3.5239498615264893,-3.6683685779571533
1.2215659000212327,-2.3299710750579834,-2.4315145015716553,-0.7481653690338135,-3.7873048782348633,-3.0000674724578857,1.9738891124725342,-0.9902074933052063,-3.042207956314087,-2.9918007850646973
1.2244951999746263,-2.1864962577819824,-1.4101158380508423,-0.16336016356945038,-3.362894296646118,-2.4833240509033203,3.0677385330200195,-0.1649361550807953,-2.57948637008667,-2.1837801933288574
1.2272547000320628,-2.164766550064087,-0.5761241912841797,0.3423178493976593,-3.0597646236419678,-2.0428192615509033,3.9298298358917236,0.40484631061553955,-2.295520305633545,-1.4094263315200806
1.2301975999725983,-2.3548991680145264,-0.10919734090566635,0.6301017999649048,-2.9829928874969482,-1.8154652118682861,4.448424816131592,0.5728749632835388,-2.307744264602661,-0.8220313787460327
1.2333453999599442,-2.7930710315704346,-0.12279282510280609,0.5967907309532166,-3.184175491333008,-1.8837182521820068,4.553466320037842,0.2722262740135193,-2.6631669998168945,-0.5255182385444641
1.2364837999921292,-3.451308250427246,-0.6428377628326416,0.2088986486196518,-3.648714780807495,-2.2590579986572266,4.2395453453063965,-0.46297571063041687,-3.327500104904175,-0.5554829835891724
1.2393318000249565,-4.248327732086182,-1.6024441719055176,-0.48292282223701477,-4.30164909362793,-2.88773512840271,3.575345039367676,-1.5023984909057617,-4.191810131072998,-0.8774688243865967
1.2423213999718428,-5.071669578552246,-2.8551876544952393,-1.3520690202713013,-5.026805877685547,-3.668738603591919,2.695732831954956,-2.6477174758911133,-5.097607612609863,-1.403135061264038
1.2454859999706969,-5.807444095611572,-4.206711292266846,-2.233457565307617,-5.695969581604004,-4.479721546173096,1.7712061405181885,-3.6804096698760986,-5.871682643890381,-2.0224967002868652
1.2483659000135958,-6.363478183746338,-5.450372219085693,-2.9645133018493652,-6.197489261627197,-5.20237922668457,0.9736065864562988,-4.409869194030762,-6.358285427093506,-2.633437395095825
1.2513188000302762,-6.682832717895508,-6.40579891204834,-3.4287970066070557,-6.456746578216553,-5.740482807159424,0.43451324105262756,-4.715875148773193,-6.447977542877197,-3.164222240447998
1.2539814000483602,-6.7464799880981445,-6.948600769042969,-3.582718849182129,-6.444330215454102,-6.029784202575684,0.21792583167552948,-4.568360328674316,-6.092647075653076,-3.582622528076172
1.2569618000416085,-6.567684650421143,-7.0300188064575195,-3.4575178623199463,-6.173990726470947,-6.040361404418945,0.30492010712623596,-4.029256343841553,-5.312168598175049,-3.887371778488159
1.2599525999976322,-6.180453300476074,-6.678753852844238,-3.1378064155578613,-5.690883636474609,-5.773268699645996,0.6029041409492493,-3.2305748462677,-4.187958717346191,-4.089976787567139
1.2628614000277594,-5.631939888000488,-5.989131927490234,-2.7312428951263428,-5.0567803382873535,-5.256836891174316,0.9696565270423889,-2.3411030769348145,-2.8503177165985107,-4.1978044509887695
1.2658504999708384,-4.975862503051758,-5.0949625968933105,-2.327404022216797,-4.334072113037109,-4.540380477905273,1.253661870956421,-1.5268830060958862,-1.4573755264282227,-4.198241710662842
1.268825100036338,-4.270334720611572,-4.137386798858643,-1.973088264465332,-3.57401442527771,-3.6889445781707764,1.333890676498413,-0.9156898260116577,-0.17235955595970154,-4.056840419769287
1.271829599980265,-3.5746383666992188,-3.2331607341766357,-1.661684513092041,-2.8100051879882812,-2.7763783931732178,1.1515681743621826,-0.5719544291496277,0.8610519170761108,-3.725261926651001
1.2748500000452623,-2.9435954093933105,-2.4493751525878906,-1.3416587114334106,-2.0531365871429443,-1.874311923980713,0.7246600389480591,-0.48739349842071533,1.5425163507461548,-3.1574978828430176
1.2782824999885634,-2.4186198711395264,-1.7949942350387573,-0.9407297372817993,-1.2948758602142334,-1.039589285850525,0.14108222723007202,-0.5881446003913879,1.8314403295516968,-2.3278422355651855
1.280866099987179,-2.0247609615325928,-1.2330994606018066,-0.40219050645828247,-0.5176101922988892,-0.30997511744499207,-0.47561115026474,-0.7637901306152344,1.7483857870101929,-1.2519588470458984
1.2838069000281394,-1.7652488946914673,-0.7044129371643066,0.28593936562538147,0.2953842580318451,0.300800621509552,-1.00801420211792,-0.9019245505332947,1.3674447536468506,0.005166887771338224
1.2867555000120774,-1.6262792348861694,-0.16053511202335358,1.0722148418426514,1.1452490091323853,0.796125590801239,-1.3888386487960815,-0.9279307723045349,0.7916936874389648,1.3285857439041138
1.2897467999719083,-1.583046555519104,0.407991886138916,1.8413078784942627,2.009504556655884,1.1879645586013794,-1.6305437088012695,-0.8326144218444824,0.12706273794174194,2.568211793899536
1.2927293999819085,-1.6151230335235596,0.9563427567481995,2.433138847351074,2.8379178047180176,1.4798578023910522,-1.829220175743103,-0.6836836934089661,-0.5489254593849182,3.5617129802703857
1.2958141999552026,-1.7144867181777954,1.3920460939407349,2.6761724948883057,3.5605697631835938,1.6608062982559204,-2.14231538772583,-0.6105595827102661,-1.2034947872161865,4.162295341491699
1.2987876000115648,-1.8850109577178955,1.6039764881134033,2.433109760284424,4.104776859283447,1.7052688598632812,-2.7392818927764893,-0.7672424912452698,-1.8509572744369507,4.273748397827148
1.3018990999553353,-2.136580228805542,1.5024007558822632,1.643769383430481,4.418565273284912,1.584639549255371,-3.7434396743774414,-1.281553864479065,-2.5369820594787598,3.8798093795776367
1.3047106000594795,-2.471012830734253,1.0572432279586792,0.34813547134399414,4.488675117492676,1.28657865524292,-5.184277057647705,-2.20774245262146,-3.311735153198242,3.051342487335205
1.3076972999842837,-2.8654696941375732,0.32358795404434204,-1.306984782218933,4.3516926765441895,0.8350497484207153,-6.971818447113037,-3.498136281967163,-4.198972225189209,1.9450610876083374
1.3109789000591263,-3.2618353366851807,-0.5561074018478394,-3.0863873958587646,4.093025207519531,0.30336982011795044,-8.902521133422852,-4.998696804046631,-5.171689987182617,0.7815842628479004
1.3142202000599355,-3.568201780319214,-1.3799306154251099,-4.71319580078125,3.8255908489227295,-0.18987064063549042,-10.703121185302734,-6.480082988739014,-6.143738269805908,-0.20177868008613586
1.3167701000347733,-3.681335687637329,-1.935973882675171,-5.927356719970703,3.6622846126556396,-0.5078164339065552,-12.095646858215332,-7.6943159103393555,-6.987506866455078,-0.7964662313461304
1.3198848000029102,-3.5049946308135986,-2.050611972808838,-6.533727169036865,3.689924716949463,-0.5222201347351074,-12.85892391204834,-8.429570198059082,-7.555805206298828,-0.8628480434417725
1.3227674000663683,-2.981733560562134,-1.635005235671997,-6.446128845214844,3.944929599761963,-0.15675656497478485,-12.882298469543457,-8.562286376953125,-7.721876621246338,-0.3632865846157074
1.3257453000405803,-2.115920066833496,-0.7069173455238342,-5.701059341430664,4.406144618988037,0.5852552056312561,-12.185816764831543,-8.082518577575684,-7.413479804992676,0.6357882022857666
1.328832200029865,-0.9785764217376709,0.6170746684074402,-4.4407525062561035,5.004232883453369,1.614734411239624,-10.904397010803223,-7.084770679473877,-6.632143497467041,1.9817113876342773
1.3317509000189602,0.3048397898674011,2.1528091430664062,-2.875821590423584,5.642821311950684,2.772134780883789,-9.24586296081543,-5.733887672424316,-5.454104423522949,3.4728593826293945
1.3347299000015482,1.584558129310608,3.6953632831573486,-1.2384711503982544,6.223248481750488,3.86867618560791,-7.436953544616699,-4.216279029846191,-4.010358810424805,4.899303436279297
1.3377123000100255,2.7219769954681396,5.066845417022705,0.27202439308166504,6.6700663566589355,4.73288106918335,-5.666391849517822,-2.6906843185424805,-2.4550459384918213,6.086486339569092
1.3407083000056446,3.6190788745880127,6.145074844360352,1.5154521465301514,6.939058780670166,5.251379013061523,-4.058974742889404,-1.2627984285354614,-0.9340202808380127,6.916529178619385
1.343239799956791,4.235732555389404,6.874232769012451,2.423175573348999,7.01735258102417,5.392018795013428,-2.668694257736206,0.020288163796067238,0.4407412111759186,7.335940837860107
1.346488600014709,4.588202953338623,7.254263401031494,2.987016439437866,6.909677982330322,5.200480937957764,-1.4966462850570679,1.1534395217895508,1.6029915809631348,7.342259883880615
1.349259400041774,4.733788013458252,7.318653583526611,3.241121292114258,6.624520778656006,4.776576995849609,-0.5175659656524658,2.1464619636535645,2.530651807785034,6.968672752380371
1.3522216000128537,4.742875576019287,7.108551979064941,3.2365505695343018,6.161026477813721,4.2361369132995605,0.2931811809539795,2.999272346496582,3.234009265899658,6.261781215667725
1.355187900015153,4.678624629974365,6.658401966094971,3.021099805831909,5.508125305175781,3.67765212059021,0.9458588361740112,3.6917288303375244,3.7428674697875977,5.269408702850342
1.3581677000038326,4.574638366699219,5.989096641540527,2.6356263160705566,4.6498003005981445,3.1541972160339355,1.43928861618042,4.188632011413574,4.092973709106445,4.039689540863037
1.3613565999548882,4.437996864318848,5.120438098907471,2.118790864944458,3.583193778991699,2.6734447479248047,1.7772266864776611,4.46147346496582,4.323350429534912,2.6277198791503906
1.3641727999784052,4.254771709442139,4.083166122436523,1.51460599899292,2.333249568939209,2.207620859146118,1.9835634231567383,4.51202917098999,4.474965572357178,1.105220079421997
1.367174100014381,4.006992816925049,2.9330103397369385,0.8856398463249207,0.9643665552139282,1.718802571296692,2.117643117904663,4.389310359954834,4.595789909362793,-0.4307372570037842
1.3702002000063658,3.6868064403533936,1.7536706924438477,0.3139435350894928,-0.420769065618515,1.1800508499145508,2.268575429916382,4.191137313842773,4.739768028259277,-1.8608272075653076
1.372666500043124,3.3059844970703125,0.6487287282943726,-0.10629414767026901,-1.6951889991760254,0.5919250249862671,2.5386412143707275,4.046259880065918,4.963088512420654,-3.0561437606811523
1.3756485000485554,2.8964056968688965,-0.276536226272583,-0.2826477885246277,-2.7309329509735107,-0.01648561656475067,3.0174875259399414,4.0835280418396,5.314617156982422,-3.900324821472168
1.3789286999963224,2.5055251121520996,-0.9324561953544617,-0.14153216779232025,-3.424232006072998,-0.5931164622306824,3.7593090534210205,4.40186071395874,5.827232837677002,-4.309138774871826
1.3816612999653444,2.189087152481079,-1.259870171546936,0.3553010821342468,-3.7144951820373535,-1.075451135635376,4.7677321434021,5.0451226234436035,6.511380195617676,-4.247287273406982
1.3846421999624,2.0005862712860107,-1.2376246452331543,1.2026933431625366,-3.594114303588867,-1.4050273895263672,5.998014450073242,5.994248390197754,7.352607727050781,-3.732775926589966
1.387623899965547,1.9837980270385742,-0.8798348903656006,2.3512113094329834,-3.105435609817505,-1.5378191471099854,7.370180130004883,7.174914836883545,8.315949440002441,-2.830026865005493
1.3906517999712378,2.1607916355133057,-0.23168502748012543,3.70495343208313,-2.3301808834075928,-1.4553800821304321,8.781819343566895,8.47415542602539,9.3488187789917,-1.6389362812042236
1.3931348000187427,2.521254062652588,0.6390736699104309,5.135677814483643,-1.3730053901672363,-1.1708526611328125,10.128155708312988,9.76363754272461,10.384705543518066,-0.2761877477169037
1.3961724999826401,3.0192008018493652,1.6477724313735962,6.497611999511719,-0.34585848450660706,-0.7312142848968506,11.314291954040527,10.920863151550293,11.345762252807617,1.1383185386657715
1.3991724000079557,3.5660452842712402,2.69296932220459,7.641270637512207,0.6415064930915833,-0.22074566781520844,12.255752563476562,11.838679313659668,12.139163970947266,2.4896397590637207
1.4021765000652522,4.037197589874268,3.658893346786499,8.435606002807617,1.4875380992889404,0.24636134505271912,12.881494522094727,12.430744171142578,12.658316612243652,3.671342372894287
1.4050950000528246,4.292818546295166,4.42180061340332,8.787939071655273,2.103844165802002,0.5417007207870483,13.135181427001953,12.632585525512695,12.790392875671387,4.587550163269043
1.408117500017397,4.206788063049316,4.864394187927246,8.662784576416016,2.422062397003174,0.5483090877532959,12.98212718963623,12.403584480285645,12.43333625793457,5.163974761962891
1.411168699967675,3.699183940887451,4.894773483276367,8.090352058410645,2.4025347232818604,0.19053006172180176,12.41877269744873,11.731858253479004,11.519981384277344,5.353300094604492
1.4133581999922171,2.7625248432159424,4.4680047035217285,7.161444187164307,2.042860984802246,-0.5406904220581055,11.479852676391602,10.639835357666016,10.04365062713623,5.145904541015625
1.416349200066179,1.4748727083206177,3.6029138565063477,6.0092082023620605,1.385873556137085,-1.5733665227890015,10.237822532653809,9.19101619720459,8.0774507522583,4.576803207397461
1.4194220000645146,-0.011209835298359394,2.388390302658081,4.78123664855957,0.5199659466743469,-2.761439561843872,8.794785499572754,7.489996433258057,5.7764081954956055,3.725114345550537
1.422352600027807,-1.500083565711975,0.9720790982246399,3.6030092239379883,-0.43238896131515503,-3.9126603603363037,7.260257720947266,5.67302131652832,3.3598828315734863,2.69987154006958
1.4252999000018463,-2.795121431350708,-0.46449974179267883,2.5519638061523438,-1.332008957862854,-4.828679084777832,5.728452682495117,3.8909246921539307,1.075537919998169,1.6232976913452148
1.4280774999642745,-3.741175651550293,-1.7370628118515015,1.6487845182418823,-2.0469367504119873,-5.349738121032715,4.260885238647461,2.2872180938720703,-0.8450965881347656,0.609118640422821
1.4309247999917716,-4.259150505065918,-2.6956207752227783,0.8604881167411804,-2.4786179065704346,-5.392421245574951,2.874253511428833,0.9700132608413696,-2.236396551132202,-0.256161093711853
1.4335798000684008,-4.3518195152282715,-3.2470500469207764,0.12696635723114014,-2.575194835662842,-4.961526393890381,1.550782561302185,-0.004109434317797422,-3.027125597000122,-0.9192075729370117
1.4367003999650478,-4.092529296875,-3.3678715229034424,-0.6078134179115295,-2.337364435195923,-4.142998695373535,0.25595536828041077,-0.6389266848564148,-3.251889944076538,-1.3554028272628784
1.4395438999636099,-3.601515531539917,-3.1025915145874023,-1.3718435764312744,-1.8178966045379639,-3.0807039737701416,-1.0412366390228271,-0.9969313740730286,-3.039080858230591,-1.5644516944885254
1.4421166999964043,-3.0082895755767822,-2.5466976165771484,-2.152986764907837,-1.106092929840088,-1.9368137121200562,-2.349733591079712,-1.1844696998596191,-2.576890468597412,-1.5587137937545776
1.4453643000451848,-2.4276504516601562,-1.8286417722702026,-2.9105608463287354,-0.31632453203201294,-0.8629908561706543,-3.6552648544311523,-1.3333865404129028,-2.0734972953796387,-1.363285779953003
1.448225500062108,-1.9434212446212769,-1.087512731552124,-3.598848819732666,0.42736345529556274,0.024242118000984192,-4.929393291473389,-1.5799944400787354,-1.7179936170578003,-1.0202945470809937
1.451106799999252,-1.6037081480026245,-0.45191478729248047,-4.194036960601807,1.007413387298584,0.6534522771835327,-6.143041133880615,-2.041388988494873,-1.6471974849700928,-0.596200168132782
1.4541216000216082,-1.4258058071136475,-0.024576688185334206,-4.7129340171813965,1.3267744779586792,0.9979378581047058,-7.2834062576293945,-2.7976412773132324,-1.9303042888641357,-0.182259663939476
1.4570373999886215,-1.4089009761810303,0.12445380538702011,-5.212275505065918,1.3214128017425537,1.065179705619812,-8.360565185546875,-3.882859706878662,-2.5716006755828857,0.11478929966688156
1.460050699999556,-1.5463948249816895,-0.037912361323833466,-5.7745280265808105,0.9680271744728088,0.8835826516151428,-9.404731750488281,-5.2824602127075195,-3.525949001312256,0.18631169199943542
1.4628674000268802,-1.8227368593215942,-0.4994732737541199,-6.469904899597168,0.29745978116989136,0.5022106170654297,-10.443833351135254,-6.9290266036987305,-4.711100101470947,-0.04220927506685257
1.4656903999857605,-2.2134082317352295,-1.2014294862747192,-7.3156232833862305,-0.6032945513725281,-0.01571056805551052,-11.477656364440918,-8.704795837402344,-6.022319316864014,-0.5820356607437134
1.468801400042139,-2.673321008682251,-2.0370864868164062,-8.252199172973633,-1.5957458019256592,-0.5885241031646729,-12.455374717712402,-10.447704315185547,-7.340331077575684,-1.3646174669265747
1.4716091000009328,-3.1347718238830566,-2.8642578125,-9.143939971923828,-2.509725570678711,-1.1214905977249146,-13.271334648132324,-11.967573165893555,-8.538308143615723,-2.247035503387451
1.4745939000276849,-3.507211208343506,-3.5187928676605225,-9.79867172241211,-3.1682615280151367,-1.5134512186050415,-13.77237606048584,-13.063374519348145,-9.48397159576416,-3.037841796875
1.4779224999947473,-3.6874027252197266,-3.842165470123291,-10.015503883361816,-3.421560287475586,-1.670814037322998,-13.789414405822754,-13.549748420715332,-10.047552108764648,-3.54382586479187
1.4807439000578597,-3.5789854526519775,-3.7142739295959473,-9.637984275817871,-3.179375410079956,-1.5256333351135254,-13.180944442749023,-13.291269302368164,-10.118977546691895,-3.6212477684020996
1.483140500029549,-3.116352081298828,-3.084089517593384,-8.60085391998291,-2.433070182800293,-1.0521419048309326,-11.874116897583008,-12.232666015625,-9.627045631408691,-3.215299129486084
1.486124400049448,-2.2953453063964844,-1.995420217514038,-6.958123207092285,-1.2681238651275635,-0.28441575169563293,-9.900361061096191,-10.427414894104004,-8.5699462890625,-2.378180503845215
1.4890763000585139,-1.1836944818496704,-0.5918984413146973,-4.882460117340088,0.1460413932800293,0.6826666593551636,-7.405474662780762,-8.045222282409668,-7.029301643371582,-1.2592170238494873
1.492078399984166,0.07344963401556015,0.8998467326164246,-2.6296093463897705,1.5828602313995361,1.7016735076904297,-4.632223606109619,-5.3595290184021,-5.17570686340332,-0.06435269117355347
1.4951592000434175,1.2794694900512695,2.210087537765503,-0.48839467763900757,2.799093008041382,2.5971274375915527,-1.8785805702209473,-2.7086124420166016,-3.2468576431274414,0.9933450818061829
1.49807079997845,2.2175607681274414,3.079172134399414,1.2781120538711548,3.5812928676605225,3.1962666511535645,0.5569299459457397,-0.4381224811077118,-1.5087225437164307,1.7473955154418945
1.5010674999793991,2.7080726623535156,3.3185324668884277,2.4915077686309814,3.7908287048339844,3.3694255352020264,2.4421372413635254,1.1700719594955444,-0.19747482240200043,2.1152918338775635
1.5040507999947295,2.6514227390289307,2.854419231414795,3.0874786376953125,3.3921661376953125,3.058509588241577,3.6536905765533447,1.9563310146331787,0.5341845750808716,2.1116771697998047
1.507025600061752,2.0577046871185303,1.7486740350723267,3.119408369064331,2.4605069160461426,2.294081926345825,4.198192119598389,1.918682336807251,0.655255913734436,1.833497166633606
1.5100381000665948,1.0515438318252563,0.18786711990833282,2.7368156909942627,1.16554594039917,1.1939990520477295,4.201909065246582,1.215635895729065,0.26637002825737,1.4267007112503052
1.5129286999581382,-0.15311944484710693,-1.5576151609420776,2.1408445835113525,-0.265367716550827,-0.05929015576839447,3.872974395751953,0.13009759783744812,-0.4228772819042206,1.0415196418762207
1.5159032000228763,-1.3007081747055054,-3.1917564868927,1.5345101356506348,-1.595319151878357,-1.2537989616394043,3.446868419647217,-0.9932746291160583,-1.1438406705856323,0.7929974794387817
1.518891099956818,-2.155700922012329,-4.455811500549316,1.077468752861023,-2.6272692680358887,-2.193310022354126,3.129422903060913,-1.8248621225357056,-1.6339116096496582,0.7348871231079102
1.5217821999685839,-2.552750825881958,-5.178188800811768,0.8569930791854858,-3.240574836730957,-2.7340354919433594,3.0544674396514893,-2.1198534965515137,-1.6954400539398193,0.8523994088172913
1.5248079999582842,-2.430645704269409,-5.299492835998535,0.8837867975234985,-3.407789945602417,-2.8098645210266113,3.2631497383117676,-1.7652256488800049,-1.2373560667037964,1.0776216983795166
1.5280049999710172,-1.8376095294952393,-4.8712921142578125,1.1056233644485474,-3.1909382343292236,-2.4397976398468018,3.711392402648926,-0.7931072115898132,-0.2869619131088257,1.3143196105957031
1.5308173999655992,-0.9094771146774292,-4.029714107513428,1.4345208406448364,-2.7160744667053223,-1.7170642614364624,4.294536590576172,0.6398165225982666,1.0284157991409302,1.4694448709487915
1.5332748000510037,0.1698704957962036,-2.955571174621582,1.7801458835601807,-2.1383426189422607,-0.7849618792533875,4.885317325592041,2.2982685565948486,2.521503210067749,1.479678750038147
1.5362901999615133,1.2073789834976196,-1.8335973024368286,2.0738019943237305,-1.6071527004241943,0.1880701333284378,5.368803977966309,3.9258484840393066,3.989942789077759,1.3237820863723755
1.5392245999537408,2.044022798538208,-0.815857470035553,2.281620502471924,-1.2344640493392944,1.0417948961257935,5.668622970581055,5.301944732666016,5.263271331787109,1.0240845680236816
1.5422255999874324,2.577014446258545,-0.0015833474462851882,2.4072484970092773,-1.0759198665618896,1.6474555730819702,5.760931968688965,6.283177852630615,6.230697154998779,0.6407711505889893
1.545395200024359,2.766254425048828,0.5685232281684875,2.484621047973633,-1.1267935037612915,1.9240154027938843,5.672618389129639,6.821892261505127,6.849371433258057,0.256346195936203
1.5482329999795184,2.6294479370117188,0.9058586955070496,2.561539649963379,-1.3299537897109985,1.8465510606765747,5.467726230621338,6.959866523742676,7.136931419372559,-0.04218927025794983
1.5512529000407085,2.2297494411468506,1.0570855140686035,2.683661937713623,-1.592171311378479,1.4488157033920288,5.22668981552124,6.802939414978027,7.152342796325684,-0.1786516308784485
1.5540780000155792,1.6538084745407104,1.083631157875061,2.879762649536133,-1.8096942901611328,0.8110374212265015,5.021935939788818,6.480559349060059,6.967507839202881,-0.09947589039802551
1.5570093999849632,0.9916517734527588,1.0405489206314087,3.146862745285034,-1.8942195177078247,0.042334169149398804,4.890449523925781,6.103654384613037,6.644493579864502,0.21452026069164276
1.560044200043194,0.32034116983413696,0.9625573754310608,3.447842836380005,-1.7936500310897827,-0.7424398064613342,4.823596954345703,5.734537124633789,6.221045970916748,0.7405906319618225
1.562618099967949,-0.3082698583602905,0.8570383787155151,3.713038921356201,-1.5062381029129028,-1.4464073181152344,4.761500835418701,5.372272968292236,5.706136226654053,1.4155255556106567
1.565577600034885,-0.8742619156837463,0.7057314515113831,3.8498075008392334,-1.0802695751190186,-2.0100338459014893,4.603594779968262,4.958332061767578,5.086140155792236,2.139425277709961
1.5685682999901474,-1.386369228363037,0.47893980145454407,3.7646431922912598,-0.6004923582077026,-2.4175117015838623,4.236288070678711,4.404838562011719,4.339602947235107,2.790797233581543
1.5715431000571698,-1.871816635131836,0.15037751197814941,3.3863394260406494,-0.1643347144126892,-2.690551280975342,3.5637764930725098,3.6292881965637207,3.4543662071228027,3.2482550144195557
1.5745092000579461,-2.359133243560791,-0.2843681275844574,2.692413806915283,0.1493227779865265,-2.869997978210449,2.5414481163024902,2.5918588638305664,2.443483591079712,3.4183835983276367
1.5778239000355825,-2.8664536476135254,-0.8018456697463989,1.7162402868270874,0.29876968264579773,-2.9969093799591064,1.1894903182983398,1.3107647895812988,1.3461620807647705,3.2516252994537354
1.580601800000295,-3.388993740081787,-1.350996971130371,0.5478587746620178,0.29267409443855286,-3.09509015083313,-0.40692681074142456,-0.13597391545772552,0.22355404496192932,2.756289005279541
1.5835329999681562,-3.8934531211853027,-1.8605475425720215,-0.6808147430419922,0.18910640478134155,-3.1606972217559814,-2.115003824234009,-1.62714684009552,-0.8500038981437683,2.0020956993103027
1.5865364000201225,-4.3293938636779785,-2.2618751525878906,-1.8308806419372559,0.07129263877868652,-3.171975612640381,-3.7926108837127686,-3.035292387008667,-1.8106952905654907,1.0985661745071411
1.5895058000460267,-4.639113903045654,-2.5046164989471436,-2.7834935188293457,0.025087760761380196,-3.100536823272705,-5.3187994956970215,-4.2581095695495605,-2.617332935333252,0.17847956717014313
1.5924991000210866,-4.781078338623047,-2.5687005519866943,-3.46585750579834,0.11154790222644806,-2.931028366088867,-6.616840362548828,-5.239622592926025,-3.260432720184326,-0.6317204236984253
1.5955839999951422,-4.739192485809326,-2.465873956680298,-3.8589863777160645,0.35171401500701904,-2.671020746231079,-7.659075736999512,-5.976320266723633,-3.76054310798645,-1.2315515279769897
1.5985627999762073,-4.52601957321167,-2.2277252674102783,-3.9864649772644043,0.7265119552612305,-2.3496265411376953,-8.448987007141113,-6.499444007873535,-4.152276515960693,-1.559891939163208
1.6016095000086352,-4.178521156311035,-1.8904032707214355,-3.8919901847839355,1.187614917755127,-2.007323741912842,-8.996390342712402,-6.852024555206299,-4.469679355621338,-1.5956908464431763
1.604497899999842,-3.7454323768615723,-1.4822227954864502,-3.6186139583587646,1.6736798286437988,-1.681772232055664,-9.296512603759766,-7.066517353057861,-4.732599258422852,-1.3578791618347168
1.607470600050874,-3.2708663940429688,-1.0146863460540771,-3.190281629562378,2.129485607147217,-1.3933674097061157,-9.31817626953125,-7.150118350982666,-4.939495086669922,-0.8951085209846497
1.6104925000108778,-2.7820487022399902,-0.48314422369003296,-2.608064889907837,2.519324541091919,-1.1385762691497803,-9.011262893676758,-7.084565162658691,-5.070749282836914,-0.276108056306839
1.6130471000215039,-2.2870471477508545,0.11962846666574478,-1.8654512166976929,2.827457904815674,-0.8955070972442627,-8.330892562866211,-6.842906951904297,-5.099303245544434,0.4163046181201935
1.6159831000259146,-1.7755266427993774,0.7946923971176147,-0.9621016979217529,3.056936025619507,-0.633056104183197,-7.260887145996094,-6.403496265411377,-5.002364158630371,1.0980521440505981
1.619003999978304,-1.2327314615249634,1.5247427225112915,0.07927802950143814,3.220439910888672,-0.3263917863368988,-5.833770275115967,-5.765753746032715,-4.772482872009277,1.694277048110962
1.6220551000442356,-0.6508064270019531,2.273655891418457,1.207736849784851,3.332235813140869,0.0319458432495594,-4.13330602645874,-4.954127311706543,-4.420018672943115,2.1514012813568115
1.624967599986121,-0.036294642835855484,2.9924135208129883,2.351900815963745,3.4050724506378174,0.43157270550727844,-2.2804341316223145,-4.011885166168213,-3.9686479568481445,2.448612689971924
1.6280953000532463,0.5858247876167297,3.6305654048919678,3.4348912239074707,3.447012186050415,0.8475912809371948,-0.40827465057373047,-2.987518787384033,-3.448152780532837,2.5973470211029053
1.630983000039123,1.182818055152893,4.152994155883789,4.397133827209473,3.467417001724243,1.2549793720245361,1.3700809478759766,-1.9189276695251465,-2.8802435398101807,2.643911600112915
1.6334673999808729,1.721840262413025,4.546695232391357,5.20790958404541,3.4758522510528564,1.6376382112503052,2.979868173599243,-0.8272545337677002,-2.2781760692596436,2.652695655822754
1.6364895000588149,2.1817829608917236,4.822759628295898,5.869187355041504,3.4844024181365967,1.9938284158706665,4.392140865325928,0.2829452157020569,-1.644066572189331,2.6890294551849365
1.6394735999638215,2.561704158782959,5.0107951164245605,6.406890392303467,3.5046231746673584,2.337526321411133,5.616238594055176,1.4153133630752563,-0.9742504954338074,2.7979865074157715
1.6424208000535145,2.875215768814087,5.1434502601623535,6.852558612823486,3.542710065841675,2.6858298778533936,6.680832386016846,2.5675277709960938,-0.2696707546710968,2.993990421295166
1.645618199952878,3.143388271331787,5.243441581726074,7.227247714996338,3.59419584274292,3.0497896671295166,7.613577842712402,3.722763776779175,0.4579424262046814,3.2539477348327637
1.6484246000181884,3.384040594100952,5.314033508300781,7.531685829162598,3.6431095600128174,3.4250447750091553,8.426468849182129,4.8465352058410645,1.1863831281661987,3.52876877784729
1.6515665999613702,3.5994343757629395,5.335197925567627,7.745059490203857,3.662564754486084,3.7871103286743164,9.110523223876953,5.891617298126221,1.8850229978561401,3.757307529449463
1.6544642000226304,3.77333927154541,5.272162437438965,7.83678674697876,3.621499538421631,4.096138954162598,9.642375946044922,6.810012340545654,2.5247015953063965,3.88529372215271
1.6573484999826178,3.8791773319244385,5.086970329284668,7.779752254486084,3.4925107955932617,4.309183120727539,9.995534896850586,7.564320087432861,3.0884687900543213,3.8787660598754883
1.6603443999774754,3.8910024166107178,4.755034446716309,7.564833641052246,3.2610511779785156,4.393492221832275,10.155523300170898,8.137096405029297,3.5783531665802,3.730329990386963
1.6632721000351012,3.798281192779541,4.277592182159424,7.209078311920166,2.9305644035339355,4.337644577026367,10.12983512878418,8.532883644104004,4.016385555267334,3.4569733142852783
1.6662296999711543,3.6158525943756104,3.6863760948181152,6.752893924713135,2.5239624977111816,4.155464172363281,9.949372291564941,8.773289680480957,4.439187049865723,3.0897679328918457
1.6692206000443548,3.385993719100952,3.0430960655212402,6.253113269805908,2.0805275440216064,3.8844873905181885,9.668264389038086,8.890620231628418,4.8888444900512695,2.664994478225708
1.6721819000085816,3.165968418121338,2.4228172302246094,5.764367580413818,1.6431097984313965,3.5724360942840576,9.347001075744629,8.913440704345703,5.395815372467041,2.214383602142334
1.6752035999670625,3.0113472938537598,1.8978995084762573,5.327497959136963,1.2496858835220337,3.2649283409118652,9.040159225463867,8.860993385314941,5.968746662139893,1.7629021406173706
1.678362000035122,2.9511687755584717,1.5150796175003052,4.955442905426025,0.9174503087997437,2.987382173538208,8.778486251831055,8.73460865020752,6.58131217956543,1.3248286247253418
1.6812349000247195,2.9757754802703857,1.2834725379943848,4.632746696472168,0.6377992033958435,2.739391803741455,8.562106132507324,8.519760131835938,7.173503398895264,0.9082704782485962
1.683680700021796,3.028468132019043,1.1703463792800903,4.3222503662109375,0.3777649998664856,2.4932057857513428,8.35733413696289,8.189817428588867,7.656789302825928,0.5195401310920715
1.6868033000500873,3.0192224979400635,1.1079094409942627,3.9731056690216064,0.08457595854997635,2.2004902362823486,8.101964950561523,7.712228775024414,7.928511142730713,0.15925422310829163
1.6896728000137955,2.8445730209350586,1.0115000009536743,3.5380117893218994,-0.29840922355651855,1.8071781396865845,7.71986722946167,7.058524131774902,7.891687393188477,-0.17296458780765533
1.692526699975133,2.4173784255981445,0.802000880241394,2.98488450050354,-0.8171098828315735,1.268645167350769,7.137640953063965,6.211531162261963,7.476616859436035,-0.48178038001060486
1.6958361000288278,1.691021203994751,0.4242208003997803,2.301828384399414,-1.4944562911987305,0.5622546672821045,6.300023555755615,5.1697916984558105,6.656261920928955,-0.7781798839569092
1.6985286000417545,0.6762487292289734,-0.14150972664356232,1.498435378074646,-2.322561740875244,-0.3055296242237091,5.180836200714111,3.949406623840332,5.4576287269592285,-1.0805764198303223
1.701806699973531,-0.5616212487220764,-0.8803233504295349,0.5963526368141174,-3.266280174255371,-1.2993794679641724,3.784724235534668,2.5808351039886475,3.9590682983398438,-1.415938138961792
1.7044902000343427,-1.9142531156539917,-1.7515745162963867,-0.37695029377937317,-4.269118785858154,-2.3621058464050293,2.144125461578369,1.1050050258636475,2.279322624206543,-1.8159133195877075
1.7075051000574604,-3.2529244422912598,-2.7016096115112305,-1.3959152698516846,-5.262892723083496,-3.421447277069092,0.31375473737716675,-0.42844879627227783,0.5604391694068909,-2.310154914855957
1.7105485000647604,-4.454411029815674,-3.6763758659362793,-2.4373526573181152,-6.177664279937744,-4.400310039520264,-1.636795163154602,-1.9637084007263184,-1.0539041757583618,-2.916099786758423
1.713216400006786,-5.423027992248535,-4.62942361831665,-3.480456590652466,-6.950831413269043,-5.227635383605957,-3.6302573680877686,-3.439619541168213,-2.439974784851074,-3.6319198608398438
1.7159948999760672,-6.102139949798584,-5.521511077880859,-4.498486518859863,-7.530527114868164,-5.844514846801758,-5.585114479064941,-4.791171073913574,-3.5100324153900146,-4.425230026245117
1.7190806999569759,-6.482538223266602,-6.320117473602295,-5.461235046386719,-7.883062839508057,-6.215270042419434,-7.424585342407227,-5.957888126373291,-4.224971294403076,-5.236790657043457
1.7219703999580815,-6.594222068786621,-6.994256973266602,-6.334105014801025,-7.99386739730835,-6.329326152801514,-9.080907821655273,-6.891452789306641,-4.5945281982421875,-5.987738609313965
1.7249448000220582,-6.493340492248535,-7.510748386383057,-7.080264568328857,-7.86821985244751,-6.200788974761963,-10.501114845275879,-7.566028118133545,-4.671586990356445,-6.591650485992432
1.7283257000381127,-6.255000114440918,-7.841273307800293,-7.673523902893066,-7.534469127655029,-5.874665260314941,-11.657386779785156,-7.993346214294434,-4.546131610870361,-6.977165699005127
1.7310216999612749,-5.953285217285156,-7.96694803237915,-8.103287696838379,-7.038449764251709,-5.413322925567627,-12.549314498901367,-8.224388122558594,-4.326007843017578,-7.1031575202941895
1.7337272999575362,-5.6508469581604,-7.886280536651611,-8.375170707702637,-6.436223030090332,-4.889575481414795,-13.201067924499512,-8.343024253845215,-4.120615005493164,-6.968247413635254
1.736658800044097,-5.392679691314697,-7.621940612792969,-8.508649826049805,-5.785274505615234,-4.376415252685547,-13.656038284301758,-8.450501441955566,-4.02501916885376,-6.610419750213623
1.7396227000281215,-5.202701568603516,-7.222468852996826,-8.529801368713379,-5.134357929229736,-3.9345691204071045,-13.964734077453613,-8.642149925231934,-4.107175827026367,-6.0959954261779785
1.7426399000687525,-5.0848188400268555,-6.756739616394043,-8.46336841583252,-4.516080379486084,-3.6051735877990723,-14.173050880432129,-8.982571601867676,-4.3981170654296875,-5.504889011383057
1.7456768000265583,-5.027751922607422,-6.302754878997803,-8.327495574951172,-3.9458653926849365,-3.403883934020996,-14.31206226348877,-9.487826347351074,-4.887416362762451,-4.916297435760498
1.7487090000649914,-5.008437633514404,-5.931015491485596,-8.130524635314941,-3.42358660697937,-3.3190698623657227,-14.390180587768555,-10.117688179016113,-5.523129463195801,-4.393434047698975
1.7516627999721095,-4.998015880584717,-5.689041614532471,-7.8747878074646,-2.9414737224578857,-3.314732313156128,-14.393848419189453,-10.784728050231934,-6.219221115112305,-3.981517791748047
1.7546636000042781,-4.961726665496826,-5.586994171142578,-7.55595588684082,-2.489670991897583,-3.333634853363037,-14.288433074951172,-11.371771812438965,-6.864396572113037,-3.7049453258514404
1.7575816999888048,-4.861171722412109,-5.592559814453125,-7.168850898742676,-2.0609970092773438,-3.305914878845215,-14.024879455566406,-11.757278442382812,-7.336957931518555,-3.571348190307617
1.760683299973607,-4.650477409362793,-5.631855010986328,-6.704904556274414,-1.6501410007476807,-3.156374216079712,-13.544986724853516,-11.835387229919434,-7.518490791320801,-3.5730464458465576
1.763136100023985,-4.275211811065674,-5.598505973815918,-6.147291660308838,-1.2479225397109985,-2.8133809566497803,-12.78690242767334,-11.528708457946777,-7.308375835418701,-3.6800131797790527
1.7660902000498027,-3.6844799518585205,-5.37897253036499,-5.472870826721191,-0.8412367701530457,-2.2272958755493164,-11.698358535766602,-10.798943519592285,-6.643569469451904,-3.8415451049804688
1.7691333000548184,-2.8344013690948486,-4.8727922439575195,-4.653594493865967,-0.41126981377601624,-1.3788613080978394,-10.244852066040039,-9.643570899963379,-5.507394313812256,-3.9871156215667725
1.7720984000479802,-1.704421043395996,-4.017559051513672,-3.6625282764434814,0.06313314288854599,-0.2892744243144989,-8.421058654785156,-8.089958190917969,-3.936140298843384,-4.030311584472656
1.7750497000524774,-0.30510368943214417,-2.801406145095825,-2.4818551540374756,0.6009666323661804,0.9819915294647217,-6.257562160491943,-6.187250137329102,-2.0127899646759033,-3.8809680938720703
1.7781371000455692,1.3187682628631592,-1.2652256488800049,-1.1098930835723877,1.2127704620361328,2.348198890686035,-3.81889009475708,-3.998765707015991,0.1476730853319168,-3.4598376750946045
1.7810606999555603,3.0885632038116455,0.5031512975692749,0.4311639368534088,1.8946776390075684,3.710174322128296,-1.1995302438735962,-1.5996034145355225,2.4147868156433105,-2.718294382095337
1.7836287000682205,4.902521133422852,2.386446475982666,2.0967657566070557,2.6278393268585205,4.975502014160156,1.4891738891601562,0.9249190092086792,4.662391185760498,-1.6494070291519165
1.7866278999717906,6.648280620574951,4.255945682525635,3.819669485092163,3.3787810802459717,6.073194980621338,4.130834102630615,3.47694993019104,6.7809834480285645,-0.2970167100429535
1.7895559000317007,8.211709976196289,5.988161563873291,5.5161542892456055,4.1026811599731445,6.958479404449463,6.616992950439453,5.945657253265381,8.68179988861084,1.2465991973876953
1.7925721000647172,9.489102363586426,7.474091529846191,7.093620777130127,4.747438430786133,7.609799385070801,8.852527618408203,8.208738327026367,10.29278564453125,2.851017475128174
1.7960964000085369,10.39155101776123,8.625547409057617,8.457232475280762,5.259130001068115,8.01976490020752,10.757654190063477,10.139874458312988,11.551392555236816,4.363544464111328
1.7985597000224516,10.85213851928711,9.377254486083984,9.517751693725586,5.588742733001709,8.186600685119629,12.267834663391113,11.622965812683105,12.40140438079834,5.629358291625977
1.801626899978146,10.830580711364746,9.690818786621094,10.206009864807129,5.6992950439453125,8.105968475341797,13.337214469909668,12.571468353271484,12.796652793884277,6.516956329345703
1.8046755000250414,10.326436996459961,9.559706687927246,10.483758926391602,5.576077461242676,7.778062343597412,13.943724632263184,12.949254989624023,12.715456008911133,6.938370704650879
1.8075494000222534,9.385993003845215,9.01457691192627,10.35440444946289,5.231767177581787,7.214130401611328,14.09854507446289,12.785287857055664,12.17785930633545,6.865429878234863
1.8107950000558048,8.105430603027344,8.125204086303711,9.869705200195312,4.70941162109375,6.445272445678711,13.853109359741211,12.177141189575195,11.257349014282227,6.3396220207214355
1.8136411999585107,6.625232696533203,6.996581077575684,9.126749038696289,4.07790470123291,5.528086185455322,13.300477981567383,11.27862548828125,10.083294868469238,5.468176364898682
1.816576899960637,5.108975410461426,5.751859664916992,8.24808406829834,3.416445255279541,4.538773059844971,12.561251640319824,10.267631530761719,8.821545600891113,4.402116298675537
1.8196727000176907,3.7122981548309326,4.510067939758301,7.3574371337890625,2.7962262630462646,3.559264659881592,11.760610580444336,9.307777404785156,7.641844749450684,3.3053832054138184
1.8223725999705493,2.55602765083313,3.367589235305786,6.555973052978516,2.2662458419799805,2.662240743637085,11.004926681518555,8.514730453491211,6.68491792678833,2.32352352142334
1.825306799961254,1.7039772272109985,2.381012439727783,5.902490139007568,1.845510482788086,1.8984853029251099,10.358061790466309,7.932260990142822,6.032334804534912,1.55470609664917
1.8287516999989748,1.1575278043746948,1.5647438764572144,5.4051408767700195,1.523547649383545,1.2899030447006226,9.831079483032227,7.532400608062744,5.696163177490234,1.0335477590560913
1.8312787000322714,0.872744619846344,0.9026333689689636,5.033282279968262,1.2772809267044067,0.8369802832603455,9.389440536499023,7.23764705657959,5.630223751068115,0.7334259152412415
1.833919299999252,0.7836437821388245,0.367786705493927,4.73590087890625,1.0879913568496704,0.5285887718200684,8.972050666809082,6.956277847290039,5.756704330444336,0.5873746275901794
1.8369270999683067,0.8310468792915344,-0.058298882097005844,4.463000297546387,0.955192506313324,0.35372331738471985,8.514335632324219,6.617635250091553,5.995097637176514,0.5142331719398499
1.8399070999585092,0.9812689423561096,-0.3717843294143677,4.1836066246032715,0.9027814865112305,0.3107800781726837,7.970762252807617,6.197393417358398,6.287136077880859,0.44828125834465027
1.842877299990505,1.2286839485168457,-0.5475396513938904,3.890366792678833,0.9688219428062439,0.4039439260959625,7.322372913360596,5.719857692718506,6.603015899658203,0.3548518121242523
1.8459069000091404,1.5778334140777588,-0.5559262037277222,3.587557077407837,1.1836578845977783,0.6330171823501587,6.568806171417236,5.235996246337891,6.9259209632873535,0.23212723433971405
1.8488719000015408,2.021700382232666,-0.38105300068855286,3.280813694000244,1.5501298904418945,0.9821260571479797,5.717628479003906,4.79486083984375,7.233522415161133,0.10300523787736893
1.8518356999848038,2.521963357925415,-0.03842398524284363,2.963299512863159,2.02919864654541,1.4105304479599,4.769906520843506,4.413234233856201,7.477737903594971,-0.0014584021409973502
1.8548308999743313,2.99967360496521,0.4117324650287628,2.6020004749298096,2.5366439819335938,1.8504847288131714,3.7051923274993896,4.055368900299072,7.575178623199463,-0.06312556564807892
1.8577940999530256,3.3466477394104004,0.8748959302902222,2.146893262863159,2.9624125957489014,2.2182986736297607,2.4885950088500977,3.638169050216675,7.419723033905029,-0.08055699616670609
1.8611562000587583,3.4512805938720703,1.2397065162658691,1.5442544221878052,3.1953554153442383,2.430626392364502,1.0844119787216187,3.0538954734802246,6.906452655792236,-0.0731106698513031
