Timestamp,TP9,AF7,AF8,TP10,Right AUX
0.0,-896.97265625,943.359375,-794.921875,-815.91796875,-809.5703125
0.00390625,812.98828125,877.44140625,-194.3359375,515.13671875,-1000.0
0.0078125,-544.43359375,-575.1953125,285.15625,-943.84765625,211.42578125
0.01171875,-1000.0,-1000.0,-220.703125,-921.875,-868.1640625
0.015625,-383.30078125,-676.7578125,-903.80859375,550.29296875,781.25
0.01953125,959.47265625,793.45703125,-878.41796875,-845.703125,-598.14453125
0.0234375,923.33984375,976.07421875,-291.50390625,666.50390625,-1000.0
0.02734375,-470.703125,-504.8828125,348.6328125,-808.59375,-62.5
0.03125,-1000.0,-1000.0,108.88671875,-1000.0,-928.7109375
0.03515625,-613.28125,-795.41015625,-799.31640625,480.95703125,814.453125
0.0390625,803.22265625,625.0,-995.60546875,-858.88671875,-559.5703125
0.04296875,-946.2890625,-908.69140625,-385.25390625,766.11328125,-1000.0
0.04500007629394531,-314.453125,-338.37890625,307.6171875,-658.203125,-506.34765625
0.04890632629394531,-1000.0,-1000.0,-21.97265625,-1000.0,912.109375
0.05281257629394531,-723.6328125,-839.84375,-873.046875,317.3828125,886.23046875
0.05671882629394531,658.203125,528.3203125,-986.81640625,-859.375,-577.63671875
0.06062507629394531,-854.00390625,-838.37890625,-447.265625,809.5703125,-1000.0
0.06453132629394531,-31.73828125,-72.265625,299.8046875,-562.98828125,-625.0
0.06843757629394531,-1000.0,-1000.0,129.8828125,-1000.0,834.9609375
0.07234382629394531,-845.703125,-846.6796875,-780.76171875,91.30859375,949.70703125
0.07625007629394531,511.71875,516.6015625,-1000.0,-879.8828125,-524.4140625
0.08015632629394531,-810.05859375,-812.98828125,-498.53515625,811.5234375,-1000.0
0.08406257629394531,358.88671875,275.87890625,195.3125,-548.828125,-764.6484375
0.08796882629394531,-1000.0,-1000.0,251.953125,-1000.0,667.48046875
0.08999991416931152,-894.53125,-928.7109375,-604.4921875,-218.75,-935.05859375
0.09390616416931152,535.64453125,461.42578125,-1000.0,-980.46875,-378.41796875
0.09781241416931152,-835.44921875,-814.453125,-616.69921875,894.53125,-1000.0
0.10171866416931152,630.859375,550.78125,148.92578125,-464.84375,-824.21875
0.10562491416931152,-865.72265625,-856.93359375,261.23046875,-1000.0,559.08203125
0.10953116416931152,-951.171875,-1000.0,-608.3984375,-557.6171875,-855.46875
0.11343741416931152,570.80078125,323.2421875,-1000.0,845.703125,-166.50390625
0.11734366416931152,-869.62890625,-832.51953125,-548.828125,-957.51953125,-1000.0
0.12124991416931152,653.3203125,703.61328125,186.5234375,-308.10546875,-854.00390625
0.12515616416931152,-727.5390625,-689.453125,325.68359375,-1000.0,501.46484375
0.12906241416931152,-1000.0,-1000.0,-491.2109375,-702.1484375,-815.4296875
0.13296866416931152,390.625,100.09765625,-979.00390625,682.12890625,132.8125
0.13499999046325684,-862.3046875,-875.48828125,-761.23046875,-858.3984375,-1000.0
0.13890624046325684,812.98828125,794.921875,-73.73046875,-30.2734375,-921.875
0.14281249046325684,-570.80078125,-563.4765625,334.9609375,-1000.0,427.24609375
0.14671874046325684,-1000.0,-1000.0,-383.7890625,-848.14453125,-808.10546875
0.15062499046325684,204.58984375,-267.08984375,-971.19140625,516.11328125,467.7734375
0.15453124046325684,-857.421875,-978.02734375,-790.0390625,-811.03515625,-933.59375
0.15843749046325684,800.78125,846.19140625,-47.36328125,309.5703125,-978.515625
0.16234374046325684,-545.8984375,-558.10546875,439.94140625,-1000.0,443.359375
0.16624999046325684,-1000.0,-1000.0,-191.40625,-887.6953125,-832.03125
0.17015624046325684,-161.1328125,-579.58984375,-929.6875,531.25,661.62109375
0.17406249046325684,-942.3828125,880.37109375,-836.9140625,-826.171875,-723.14453125
0.17796874046325684,832.03125,915.52734375,-149.4140625,585.44921875,-1000.0
0.18000006675720215,-552.24609375,-558.59375,338.8671875,-901.3671875,61.03515625
0.18390631675720215,-1000.0,-1000.0,-139.16015625,-935.546875,-895.01953125
0.18781256675720215,-471.19140625,-728.515625,-877.9296875,557.12890625,786.62109375
0.19171881675720215,901.85546875,723.6328125,-924.31640625,-852.5390625,-593.26171875
0.19562506675720215,983.88671875,-969.23828125,-375.0,697.265625,-1000.0
0.19953131675720215,-394.04296875,-432.6171875,303.7109375,-762.20703125,-249.51171875
0.20343756675720215,-1000.0,-1000.0,125.0,-1000.0,-981.4453125
0.20734381675720215,-634.765625,-827.63671875,-783.203125,422.8515625,844.23828125
0.21125006675720215,768.5546875,565.4296875,-1000.0,-868.65234375,-558.59375
0.21515631675720215,-906.25,-869.140625,-399.4140625,818.84765625,-1000.0
0.21906256675720215,-220.21484375,-230.46875,307.12890625,-580.56640625,-604.4921875
0.22296881675720215,-1000.0,-1000.0,8.7890625,-1000.0,862.79296875
0.24000000953674316,-767.578125,-839.84375,-854.00390625,270.5078125,903.80859375
0.24390625953674316,593.75,520.99609375,-995.60546875,-857.421875,-585.9375
0.24781250953674316,-826.66015625,-822.75390625,-431.15234375,806.640625,-1000.0
0.25171875953674316,165.0390625,76.66015625,267.08984375,-556.15234375,-710.9375
0.25562500953674316,-1000.0,-1000.0,77.63671875,-1000.0,720.703125
0.25953125953674316,-865.234375,-865.234375,-762.20703125,3.90625,-947.75390625
0.26343750953674316,518.5546875,510.7421875,-1000.0,-896.484375,-371.58203125
0.26734375953674316,-817.3828125,-811.5234375,-505.37109375,813.4765625,-1000.0
0.27125000953674316,548.33984375,417.48046875,263.18359375,-544.43359375,-790.52734375
0.27515625953674316,-929.19921875,-949.70703125,257.32421875,-1000.0,628.90625
0.27906250953674316,-927.24609375,-985.83984375,-631.34765625,-375.9765625,-897.94921875
0.28296875953674316,553.7109375,411.62109375,-1000.0,944.3359375,-307.12890625
0.2850000858306885,-851.5625,-820.80078125,-628.90625,967.7734375,-1000.0
0.2889063358306885,690.4296875,633.7890625,120.60546875,-386.71875,-838.8671875
0.2928125858306885,-786.62109375,-782.71484375,276.3671875,-1000.0,523.4375
0.2967188358306885,-1000.0,-1000.0,-592.28515625,-635.25390625,-832.51953125
0.3006250858306885,485.3515625,256.8359375,-996.58203125,770.01953125,-33.203125
0.3045313358306885,-868.1640625,-845.21484375,-624.0234375,-906.25,-1000.0
0.3084375858306885,794.43359375,754.39453125,86.42578125,-222.65625,-873.046875
0.3123438358306885,-616.2109375,-613.28125,336.42578125,-1000.0,462.890625
0.3162500858306885,-1000.0,-1000.0,-478.02734375,-771.484375,-807.12890625
0.3201563358306885,303.7109375,-56.15234375,-952.1484375,599.609375,434.08203125
0.3240625858306885,-859.375,-915.0390625,-750.48828125,-831.54296875,-940.91796875
0.3279688358306885,809.08203125,819.3359375,-110.83984375,97.16796875,-991.2109375
0.3299999237060547,-562.5,-550.78125,357.91015625,-1000.0,405.2734375
0.3339061737060547,-1000.0,-1000.0,-243.65234375,-861.328125,-816.40625
0.3378124237060547,80.078125,-425.29296875,-933.10546875,520.01953125,566.40625
0.3417186737060547,-882.32421875,962.40234375,-847.65625,-812.98828125,-851.07421875
0.3456249237060547,811.03515625,870.1171875,-171.875,416.50390625,-1000.0
0.3495311737060547,-548.33984375,-570.80078125,396.484375,-987.3046875,337.40234375
0.3534374237060547,-1000.0,-1000.0,-90.8203125,-904.78515625,-846.19140625
0.3573436737060547,-243.1640625,-658.203125,-909.66796875,540.52734375,743.65234375
0.3612499237060547,-989.74609375,812.98828125,-854.4921875,-835.44921875,-621.58203125
0.3651561737060547,897.4609375,963.8671875,-141.11328125,627.9296875,-1000.0
0.3690624237060547,-466.796875,-515.13671875,344.23828125,-855.46875,-69.3359375
0.3729686737060547,-1000.0,-1000.0,-89.35546875,-977.05078125,-931.15234375
0.375,-558.10546875,-780.76171875,-859.86328125,517.08984375,813.96484375
0.37890625,845.21484375,647.94921875,-946.77734375,-863.28125,-566.89453125
0.3828125,-958.49609375,-919.43359375,-384.27734375,763.18359375,-1000.0
0.38671875,-308.59375,-356.4453125,286.1328125,-680.17578125,-451.66015625
0.390625,-1000.0,-1000.0,145.99609375,-1000.0,937.98828125
0.39453125,-702.63671875,-841.796875,-736.328125,383.7890625,879.8828125
0.3984375,681.640625,531.73828125,-1000.0,-863.76953125,-575.1953125
0.40234375,-858.88671875,-844.7265625,-427.24609375,814.453125,-1000.0
0.40625,-30.2734375,-118.1640625,378.41796875,-571.77734375,-518.5546875
0.41015625,-1000.0,-1000.0,97.65625,-1000.0,907.2265625
0.4140625,-846.19140625,-843.26171875,-838.8671875,205.078125,907.71484375
0.41796875,512.6953125,516.6015625,-993.65234375,-856.4453125,-552.24609375
0.4200000762939453,-810.546875,-813.4765625,-518.06640625,799.31640625,-1000.0
0.4239063262939453,348.6328125,229.98046875,162.59765625,-542.96875,-757.8125
0.4278125762939453,-1000.0,-1000.0,125.9765625,-1000.0,678.22265625
0.4317188262939453,-893.5546875,-909.1796875,-743.1640625,-177.734375,-945.3125
0.4356250762939453,534.1796875,479.00390625,-1000.0,-968.26171875,-396.484375
0.4395313262939453,-831.54296875,-812.98828125,-457.51953125,693.359375,-1000.0
0.4434375762939453,608.88671875,525.390625,224.12109375,-538.0859375,-809.5703125
0.4473438262939453,-882.8125,-878.41796875,287.59765625,-1000.0,585.9375
0.4512500762939453,-940.91796875,-1000.0,-565.91796875,-575.1953125,-871.09375
0.4551563262939453,560.546875,341.796875,-1000.0,854.4921875,-215.8203125
0.4590625762939453,-859.86328125,-829.1015625,-649.90234375,-966.30859375,-1000.0
0.4629688262939453,722.16796875,687.98828125,123.53515625,-327.1484375,-825.1953125
0.4649999141693115,-729.4921875,-710.9375,438.4765625,-1000.0,539.55078125
0.4689061641693115,-1000.0,-1000.0,-408.203125,-708.984375,-825.68359375
0.4728124141693115,404.296875,128.41796875,-979.98046875,692.87109375,79.1015625
0.4767186641693115,-866.69921875,-870.1171875,-709.9609375,-874.0234375,-1000.0
0.4806249141693115,815.91796875,790.0390625,-47.8515625,-141.11328125,-887.20703125
0.4845311641693115,-576.171875,-568.84765625,332.03125,-1000.0,464.35546875
0.4884374141693115,-1000.0,-1000.0,-347.65625,-841.30859375,-814.453125
0.4923436641693115,239.2578125,-233.88671875,-933.10546875,517.08984375,549.8046875
0.4962499141693115,-857.91015625,-967.28515625,-803.7109375,-813.4765625,-861.81640625
0.5001561641693115,805.17578125,841.796875,-173.33984375,174.31640625,-1000.0
0.5040624141693115,-553.22265625,-556.15234375,320.3125,-1000.0,345.21484375
0.5079686641693115,-1000.0,-1000.0,-214.35546875,-867.1875,-828.125
0.5109999179840088,-52.734375,-559.5703125,-932.6171875,519.53125,656.25
0.5149061679840088,-913.0859375,894.53125,-846.6796875,-816.89453125,-743.1640625
0.5188124179840088,821.2890625,905.76171875,-187.01171875,548.828125,-1000.0
0.5227186679840088,-548.33984375,-565.4296875,325.1953125,-929.19921875,104.4921875
0.5266249179840088,-1000.0,-1000.0,-101.5625,-927.24609375,-885.7421875
0.5305311679840088,-376.46484375,-717.28515625,-894.53125,554.6875,784.66796875
0.5344374179840088,943.359375,741.69921875,-898.92578125,-852.5390625,-593.75
0.5383436679840088,967.28515625,-984.375,-139.16015625,699.21875,-1000.0
0.5422499179840088,-386.71875,-455.078125,411.62109375,-771.484375,-200.1953125
0.5461561679840088,-1000.0,-1000.0,-86.42578125,-1000.0,-968.26171875
0.5500624179840088,-634.765625,-822.265625,-874.51171875,461.42578125,838.8671875
0.5539686679840088,769.04296875,578.61328125,-974.12109375,-872.55859375,-556.15234375
0.5550000667572021,-906.25,-879.39453125,-434.08203125,820.3125,-1000.0
0.5589063167572021,-220.21484375,-266.11328125,291.015625,-584.47265625,-573.2421875
0.5628125667572021,-1000.0,-1000.0,76.66015625,-1000.0,878.90625
0.5667188167572021,-769.53125,-839.35546875,-814.453125,304.6875,899.4140625
0.5706250667572021,596.19140625,522.94921875,-1000.0,-856.93359375,-583.0078125
0.5745313167572021,-829.1015625,-826.66015625,-416.015625,804.6875,-1000.0
0.5784375667572021,134.765625,22.94921875,365.234375,-554.19921875,-579.58984375
0.5823438167572021,-1000.0,-1000.0,81.54296875,-1000.0,856.4453125
0.5862500667572021,-864.2578125,-853.515625,-829.58984375,3.90625,957.51953125
0.5901563167572021,519.53125,516.6015625,-1000.0,-896.484375,-495.1171875
0.5940625667572021,-815.4296875,-811.03515625,-530.76171875,813.96484375,-1000.0
0.5979688167572021,475.09765625,379.8828125,150.390625,-544.43359375,-797.36328125
0.5999999046325684,-960.9375,-969.7265625,192.3828125,-1000.0,612.79296875
0.6039061546325684,-915.0390625,-973.6328125,-667.48046875,-378.41796875,-895.5078125
0.6078124046325684,545.8984375,418.45703125,-1000.0,948.73046875,-306.15234375
0.6117186546325684,-841.796875,-817.3828125,-626.46484375,954.58984375,-1000.0
0.6156249046325684,648.92578125,607.421875,70.3125,-412.109375,-832.51953125
0.6195311546325684,-825.1953125,-805.17578125,300.78125,-1000.0,537.59765625
0.6234374046325684,-1000.0,-1000.0,-458.984375,-638.671875,-838.37890625
0.6273436546325684,482.421875,266.11328125,-972.16796875,777.83203125,-62.01171875
0.6312499046325684,-858.3984375,-841.796875,-702.63671875,-925.29296875,-1000.0
0.6351561546325684,759.765625,742.67578125,75.1953125,-277.34375,-849.609375
0.6390624046325684,-671.38671875,-629.8828125,424.31640625,-1000.0,518.5546875
0.6429686546325684,-1000.0,-1000.0,-479.4921875,-774.90234375,-812.98828125
0.6600000858306885,337.40234375,-30.2734375,-1000.0,606.93359375,233.3984375
0.6639063358306885,-862.3046875,-907.71484375,-726.5625,-841.30859375,-1000.0
0.6678125858306885,812.98828125,814.94140625,-98.14453125,-24.4140625,-952.1484375
0.6717188358306885,-569.3359375,-552.734375,301.7578125,-1000.0,398.4375
0.6756250858306885,-1000.0,-1000.0,-356.4453125,-856.4453125,-809.08203125
0.6795313358306885,176.26953125,-394.53125,-949.21875,523.4375,571.77734375
0.6834375858306885,-863.76953125,970.21484375,-809.5703125,-808.10546875,-839.84375
0.6873438358306885,607.421875,766.6015625,-138.671875,163.0859375,-962.890625
0.6912500858306885,-621.58203125,-602.5390625,413.0859375,-1000.0,363.28125
0.6951563358306885,-1000.0,-1000.0,-6.8359375,-861.328125,-853.515625
0.6990625858306885,-204.1015625,-654.78515625,-859.86328125,520.01953125,715.33203125
0.7029688358306885,-964.84375,829.1015625,-931.640625,-829.58984375,-667.96875
0.6940000057220459,889.16015625,953.61328125,-285.64453125,631.34765625,-1000.0
0.6979062557220459,-462.40234375,-525.87890625,325.1953125,-865.234375,-60.05859375
0.7018125057220459,-1000.0,-1000.0,-76.171875,-952.1484375,-929.6875
0.7057187557220459,-551.7578125,-760.7421875,-899.4140625,570.3125,813.4765625
0.7096250057220459,843.26171875,664.55078125,-922.36328125,-871.09375,-571.2890625
0.7135312557220459,941.89453125,971.19140625,-241.69921875,665.0390625,-1000.0
0.7174375057220459,-342.7734375,-404.296875,360.3515625,-715.8203125,-394.53125
0.7213437557220459,-1000.0,-1000.0,22.94921875,-1000.0,963.8671875
0.7252500057220459,-711.9140625,-846.6796875,-818.84765625,391.6015625,866.2109375
0.7291562557220459,687.01171875,541.50390625,-993.1640625,-861.328125,-569.82421875
0.7330625057220459,-862.3046875,-848.6328125,-419.921875,813.96484375,-1000.0
0.7369687557220459,-55.17578125,-142.08984375,300.78125,-570.80078125,-654.296875
0.75,-1000.0,-1000.0,153.3203125,-1000.0,822.75390625
0.75390625,-851.07421875,-842.28515625,-748.046875,205.078125,930.6640625
0.7578125,520.99609375,516.6015625,-1000.0,-856.4453125,-562.5
0.76171875,-813.4765625,-814.453125,-494.62890625,799.31640625,-1000.0
0.765625,193.359375,196.77734375,316.89453125,-542.96875,-657.71484375
0.76953125,-1000.0,-1000.0,322.265625,-1000.0,781.25
0.7734375,-869.140625,-899.4140625,-679.6875,-189.453125,-978.02734375
0.77734375,521.484375,485.83984375,-1000.0,-965.8203125,-412.59765625
0.78125,-823.2421875,-812.5,-550.78125,878.41796875,-1000.0
0.78515625,582.51953125,506.8359375,120.1171875,-479.98046875,-813.4765625
0.7890625,-903.3203125,-891.11328125,246.58203125,-1000.0,559.08203125
0.79296875,-935.05859375,-1000.0,-621.09375,-562.01171875,-849.609375
0.7950000762939453,557.12890625,354.98046875,-973.6328125,854.4921875,-112.3046875
0.7989063262939453,-854.98046875,-827.63671875,-598.14453125,-979.98046875,-1000.0
0.8028125762939453,701.66015625,679.6875,45.8984375,-359.375,-865.72265625
0.8067188262939453,-766.11328125,-723.14453125,324.21875,-1000.0,506.8359375
0.8106250762939453,-1000.0,-1000.0,-496.58203125,-711.9140625,-820.80078125
0.8145313262939453,454.1015625,159.1796875,-989.2578125,701.171875,82.03125
0.8184375762939453,-872.55859375,-863.76953125,-704.1015625,-886.71875,-1000.0
0.8223438262939453,819.82421875,782.2265625,29.78515625,-223.6328125,-895.99609375
0.8262500762939453,-584.9609375,-577.63671875,384.27734375,-1000.0,464.84375
0.8301563262939453,-1000.0,-1000.0,-412.109375,-813.4765625,-805.17578125
0.8340625762939453,304.19921875,-191.40625,-996.58203125,535.64453125,385.7421875
0.8379688262939453,-857.421875,-954.1015625,-729.98046875,-816.40625,-950.1953125
0.8399999141693115,804.19921875,836.42578125,63.96484375,164.0625,-1000.0
0.8439061641693115,-554.6875,-553.7109375,355.95703125,-1000.0,332.03125
0.8478124141693115,-1000.0,-1000.0,-329.58984375,-865.234375,-827.1484375
0.8517186641693115,3.90625,-534.1796875,-916.50390625,519.04296875,661.1328125
0.8556249141693115,-896.97265625,909.66796875,-844.23828125,-816.89453125,-757.8125
0.8595311641693115,812.98828125,897.4609375,-237.3046875,548.828125,-1000.0
0.8634374141693115,-544.43359375,-567.3828125,377.44140625,-929.19921875,210.44921875
0.8673436641693115,-1000.0,-1000.0,84.47265625,-927.24609375,-860.3515625
0.8712499141693115,-376.46484375,-697.265625,-826.66015625,554.6875,757.32421875
0.8751561641693115,943.359375,765.13671875,-956.54296875,-853.02734375,-596.19140625
0.8790624141693115,967.28515625,-998.046875,-332.03125,701.66015625,-1000.0
0.8829686641693115,-386.71875,-469.7265625,302.24609375,-776.85546875,-267.08984375
0.8849999904632568,-1000.0,-1000.0,-67.87109375,-1000.0,-991.69921875
0.8889062404632568,-636.23046875,-812.98828125,-889.6484375,488.76953125,846.6796875
0.8928124904632568,771.97265625,594.7265625,-952.1484375,-874.51171875,-565.91796875
0.8967187404632568,-912.109375,-888.671875,-391.6015625,819.82421875,-1000.0
0.9006249904632568,-239.2578125,-295.41015625,288.57421875,-583.49609375,-537.59765625
0.9045312404632568,-1000.0,-1000.0,57.12890625,-1000.0,892.578125
0.9084374904632568,-771.97265625,-837.890625,-815.4296875,304.6875,908.203125
0.9123437404632568,600.5859375,522.94921875,-973.14453125,-856.93359375,-554.6875
0.9162499904632568,-833.984375,-828.61328125,-386.23046875,804.6875,-1000.0
0.9201562404632568,72.75390625,-1.46484375,281.73828125,-554.19921875,-696.77734375
0.9240624904632568,-1000.0,-1000.0,161.62109375,-1000.0,775.87890625
0.9279687404632568,-858.88671875,-852.05078125,-718.75,3.90625,971.6796875
0.9309999942779541,518.5546875,517.08984375,-1000.0,-896.484375,-519.53125
0.9349062442779541,-812.98828125,-811.5234375,-532.2265625,813.96484375,-1000.0
0.9388124942779541,395.5078125,347.65625,252.9296875,-543.9453125,-783.69140625
0.9427187442779541,-996.09375,-984.86328125,176.7578125,-1000.0,629.8828125
0.9466249942779541,-906.25,-965.33203125,-724.609375,-382.8125,-899.4140625
0.9505312442779541,544.43359375,437.5,-1000.0,958.984375,-323.73046875
0.9544374942779541,-837.40234375,-818.359375,-485.3515625,927.24609375,-1000.0
0.9583437442779541,528.80859375,490.72265625,254.8828125,-463.8671875,-725.09765625
0.9622499942779541,-892.08984375,-854.4921875,284.1796875,-1000.0,587.40234375
0.9661562442779541,-953.125,-1000.0,-600.5859375,-639.6484375,-861.328125
0.9700624942779541,520.99609375,273.4375,-1000.0,783.69140625,-95.21484375
0.9739687442779541,-862.79296875,-835.9375,-695.3125,-939.94140625,-1000.0
0.9749999046325684,763.671875,730.46875,12.20703125,-318.359375,-865.234375
0.9789061546325684,-682.12890625,-647.4609375,347.16796875,-1000.0,485.83984375
0.9828124046325684,-1000.0,-1000.0,-424.8046875,-756.34765625,-811.5234375
0.9867186546325684,396.484375,4.39453125,-986.81640625,623.53515625,217.7734375
0.9906249046325684,-864.74609375,-898.4375,-757.32421875,-846.19140625,-1000.0
0.9945311546325684,813.4765625,808.10546875,31.73828125,-33.203125,-889.16015625
0.9984374046325684,-571.2890625,-556.640625,452.63671875,-1000.0,504.8828125
1.0023436546325684,-1000.0,-1000.0,-310.05859375,-845.703125,-819.3359375
1.0062499046325684,204.58984375,-366.2109375,-968.26171875,512.6953125,548.828125
1.0101561546325684,-857.421875,985.83984375,-771.484375,-809.08203125,-849.12109375
1.0140624046325684,798.828125,860.3515625,32.2265625,358.88671875,-1000.0
1.0179686546325684,-542.96875,-565.91796875,344.7265625,-1000.0,288.57421875
1.0350000858306885,-1000.0,-1000.0,-307.6171875,-894.53125,-850.09765625
1.0389063358306885,-188.4765625,-626.953125,-904.78515625,536.1328125,747.0703125
1.0428125858306885,-970.21484375,844.7265625,-878.90625,-834.9609375,-639.16015625
1.0467188358306885,888.18359375,939.453125,-343.26171875,631.8359375,-1000.0
1.0506250858306885,-463.8671875,-541.015625,296.875,-865.72265625,11.71875
1.0545313358306885,-1000.0,-1000.0,1.46484375,-945.80078125,-912.109375
1.0584375858306885,-560.05859375,-753.90625,-854.98046875,565.4296875,819.3359375
1.0623438358306885,849.12109375,687.5,-977.5390625,-869.62890625,-590.33203125
1.0662500858306885,-968.75,-942.3828125,-374.0234375,764.6484375,-1000.0
1.0701563358306885,-332.03125,-393.06640625,386.23046875,-681.640625,-72.265625
1.0740625858306885,-1000.0,-1000.0,-8.30078125,-1000.0,-926.7578125
1.0779688358306885,-707.51953125,-836.9140625,-893.06640625,399.4140625,817.87109375
1.068000078201294,690.4296875,544.43359375,-960.9375,-864.2578125,-545.8984375
1.071906328201294,-872.55859375,-853.515625,-409.66796875,813.4765625,-1000.0
1.075812578201294,-125.9765625,-172.36328125,285.15625,-570.80078125,-634.27734375
1.079718828201294,-1000.0,-1000.0,32.71484375,-1000.0,835.44921875
1.083625078201294,-842.28515625,-840.33203125,-827.63671875,205.078125,930.17578125
1.087531328201294,516.11328125,517.578125,-1000.0,-856.93359375,-557.12890625
1.091437578201294,-813.96484375,-816.40625,-436.5234375,799.31640625,-1000.0
1.095343828201294,195.3125,162.59765625,296.38671875,-542.96875,-711.42578125
1.099250078201294,-1000.0,-1000.0,215.33203125,-1000.0,738.76953125
1.103156328201294,-870.1171875,-890.625,-674.8046875,-192.87109375,-977.05078125
1.107062578201294,520.5078125,490.72265625,-1000.0,-957.51953125,-432.6171875
1.110968828201294,-812.98828125,-812.01171875,-556.15234375,857.421875,-1000.0
1.1400001049041748,542.48046875,481.4453125,208.49609375,-528.80859375,-782.2265625
1.1439063549041748,-927.24609375,-906.25,222.65625,-1000.0,612.79296875
1.1478126049041748,-827.63671875,-1000.0,-658.69140625,-451.171875,-877.9296875
1.1517188549041748,587.890625,366.2109375,-1000.0,900.390625,-219.7265625
1.1556251049041748,-870.1171875,-825.68359375,-520.01953125,984.86328125,-1000.0
1.1595313549041748,708.984375,667.96875,296.38671875,-387.6953125,-834.47265625
1.1634376049041748,-779.296875,-737.3046875,334.9609375,-1000.0,511.23046875
1.1673438549041748,-1000.0,-1000.0,-565.4296875,-687.5,-813.96484375
1.1712501049041748,488.28125,178.7109375,-961.9140625,721.19140625,184.08203125
1.1751563549041748,-875.0,-858.88671875,-710.44921875,-893.06640625,-1000.0
1.1790626049041748,819.3359375,775.87890625,-67.87109375,-225.5859375,-916.50390625
1.1829688549041748,-583.984375,-585.44921875,344.7265625,-1000.0,464.35546875
1.1710000038146973,-1000.0,-1000.0,-338.8671875,-790.52734375,-806.640625
1.1749062538146973,304.19921875,-163.57421875,-962.890625,564.453125,366.69921875
1.1788125038146973,-857.421875,-945.3125,-804.19921875,-821.2890625,-967.7734375
1.1827187538146973,804.19921875,833.0078125,-124.0234375,164.55078125,-990.72265625
1.1866250038146973,-554.6875,-552.24609375,340.8203125,-1000.0,374.51171875
1.1905312538146973,-1000.0,-1000.0,-227.5390625,-865.234375,-822.75390625
1.1944375038146973,3.90625,-507.32421875,-915.0390625,519.04296875,645.01953125
1.1983437538146973,-896.97265625,925.29296875,-831.0546875,-816.89453125,-765.625
1.2022500038146973,812.98828125,888.18359375,-112.79296875,548.828125,-1000.0
1.2061562538146973,-544.43359375,-571.77734375,337.890625,-929.19921875,192.3828125
1.2100625038146973,-1000.0,-1000.0,-207.51953125,-927.24609375,-874.51171875
1.2139687538146973,-377.9296875,-687.98828125,-898.4375,554.6875,786.1328125
1.2149999141693115,946.77734375,777.34375,-838.8671875,-853.02734375,-570.80078125
1.2189061641693115,957.03125,993.1640625,-280.76171875,701.171875,-1000.0
1.2228124141693115,-405.76171875,-480.95703125,305.6640625,-776.3671875,-242.67578125
1.2267186641693115,-1000.0,-1000.0,-15.625,-1000.0,-985.83984375
1.2306249141693115,-632.32421875,-800.29296875,-869.140625,494.140625,855.46875
1.2345311641693115,775.390625,604.4921875,-950.68359375,-874.0234375,-572.75390625
1.2384374141693115,975.5859375,-995.1171875,-283.203125,710.44921875,-1000.0
1.2423436641693115,-309.08203125,-347.65625,439.453125,-630.37109375,-305.6640625
1.2462499141693115,-1000.0,-1000.0,109.86328125,-1000.0,-997.0703125
1.2501561641693115,-775.390625,-846.19140625,-839.84375,296.38671875,850.5859375
1.2540624141693115,616.2109375,527.83203125,-1000.0,-854.00390625,-564.453125
1.2579686641693115,-842.7734375,-832.03125,-442.87109375,805.17578125,-1000.0
1.2599999904632568,-11.23046875,-28.3203125,259.27734375,-554.19921875,-698.73046875
1.2639062404632568,-1000.0,-1000.0,37.59765625,-1000.0,774.90234375
1.2678124904632568,-848.6328125,-849.609375,-813.96484375,3.90625,966.30859375
1.2717187404632568,513.671875,516.6015625,-1000.0,-896.97265625,-527.83203125
1.2756249904632568,-810.546875,-812.01171875,-521.484375,815.4296875,-1000.0
1.2795312404632568,358.3984375,324.21875,246.58203125,-545.8984375,-761.71875
1.2834374904632568,-1000.0,-997.0703125,275.390625,-1000.0,655.2734375
1.2873437404632568,-894.53125,-948.73046875,-603.515625,-354.98046875,-910.64453125
1.2912499904632568,535.64453125,442.87109375,-1000.0,972.65625,-316.40625
1.2951562404632568,-835.44921875,-815.91796875,-610.3515625,915.52734375,-1000.0
1.2990624904632568,631.34765625,578.125,178.7109375,-476.5625,-803.7109375
1.3029687404632568,-865.72265625,-832.03125,364.2578125,-1000.0,590.8203125
1.3050000667572021,-945.80078125,-1000.0,-610.3515625,-607.91015625,-860.83984375
1.3089063167572021,565.4296875,296.38671875,-1000.0,807.12890625,-168.9453125
1.3128125667572021,-870.60546875,-836.9140625,-625.9765625,-946.77734375,-1000.0
1.3167188167572021,763.671875,723.6328125,17.08984375,-313.4765625,-851.5625
1.3206250667572021,-681.640625,-659.66796875,289.0625,-1000.0,469.7265625
1.3245313167572021,-1000.0,-1000.0,-435.546875,-717.7734375,-806.15234375
1.3284375667572021,398.92578125,40.52734375,-936.03515625,665.0390625,362.3046875
1.3323438167572021,-865.234375,-889.16015625,-747.0703125,-854.4921875,-979.00390625
1.3362500667572021,812.98828125,803.7109375,-92.7734375,-30.76171875,-963.8671875
1.3401563167572021,-570.80078125,-559.08203125,344.7265625,-1000.0,431.640625
1.3440625667572021,-1000.0,-1000.0,-285.15625,-845.21484375,-812.98828125
1.3479688167572021,205.078125,-319.3359375,-941.89453125,512.6953125,500.48828125
1.3659999370574951,-857.421875,-996.58203125,-821.2890625,-809.08203125,-911.1328125
1.3699061870574951,798.33984375,853.515625,-116.69921875,358.88671875,-1000.0
1.3738124370574951,-542.96875,-562.01171875,372.0703125,-1000.0,418.45703125
1.3777186870574951,-1000.0,-1000.0,-270.01953125,-894.53125,-836.42578125
1.3816249370574951,-190.4296875,-607.421875,-958.0078125,536.1328125,689.453125
1.3855311870574951,-964.84375,861.328125,-830.56640625,-834.9609375,-694.82421875
1.3894374370574951,872.0703125,928.7109375,-106.4453125,631.34765625,-1000.0
1.3933436870574951,-489.2578125,-550.29296875,389.16015625,-865.72265625,55.6640625
1.3972499370574951,-1000.0,-1000.0,-46.38671875,-945.80078125,-899.4140625
1.4011561870574951,-562.5,-744.62890625,-855.46875,564.94140625,804.6875
1.4050624370574951,854.4921875,700.1953125,-915.52734375,-865.72265625,-554.6875
1.4089686870574951,-982.91015625,-951.66015625,-372.55859375,749.51171875,-1000.0
1.4100000858306885,-365.234375,-407.71484375,286.62109375,-698.2421875,-388.671875
1.4139063358306885,-1000.0,-1000.0,28.80859375,-1000.0,963.37890625
1.4178125858306885,-702.63671875,-833.984375,-842.7734375,398.92578125,873.046875
1.4217188358306885,707.03125,550.78125,-992.67578125,-864.2578125,-574.70703125
1.4256250858306885,-887.6953125,-858.3984375,-427.24609375,813.96484375,-1000.0
1.4295313358306885,-211.9140625,-191.89453125,346.19140625,-570.80078125,-451.66015625
1.4334375858306885,-1000.0,-1000.0,116.69921875,-1000.0,935.05859375
1.4373438358306885,-808.10546875,-839.84375,-818.359375,205.078125,884.27734375
1.4412500858306885,544.921875,518.5546875,-1000.0,-856.4453125,-564.453125
1.4451563358306885,-818.359375,-818.359375,-373.046875,801.7578125,-1000.0
1.4490625858306885,164.0625,136.23046875,312.5,-545.8984375,-735.3515625
1.4529688358306885,-1000.0,-1000.0,66.89453125,-1000.0,714.84375
1.4549999237060547,-865.234375,-882.8125,-776.3671875,-160.64453125,-976.5625
1.4589061737060547,518.5546875,497.0703125,-1000.0,-941.89453125,-445.3125
1.4628124237060547,-817.3828125,-811.5234375,-577.63671875,832.03125,-1000.0
1.4667186737060547,548.33984375,458.0078125,104.4921875,-551.7578125,-810.546875
1.4706249237060547,-929.19921875,-921.38671875,191.89453125,-1000.0,587.890625
1.4745311737060547,-927.24609375,-1000.0,-618.65234375,-481.4453125,-877.9296875
1.4784374237060547,554.19921875,378.41796875,-1000.0,897.94921875,-248.53515625
1.4823436737060547,-854.00390625,-823.2421875,-599.609375,985.83984375,-1000.0
1.4862499237060547,701.171875,653.80859375,205.078125,-395.5078125,-818.359375
1.4901561737060547,-776.85546875,-756.34765625,370.1171875,-1000.0,555.17578125
1.4940624237060547,-1000.0,-1000.0,-583.49609375,-650.390625,-833.984375
1.4979686737060547,488.28125,210.9375,-1000.0,754.8828125,-9.765625
1.5,-875.48828125,-853.02734375,-667.96875,-901.85546875,-1000.0
1.50390625,819.3359375,768.06640625,3.90625,-221.19140625,-879.8828125
1.5078125,-583.984375,-594.7265625,307.6171875,-1000.0,454.1015625
1.51171875,-1000.0,-1000.0,-443.84765625,-767.578125,-809.08203125
1.515625,304.19921875,-123.046875,-957.03125,594.23828125,479.00390625
1.51953125,-857.421875,-933.59375,-741.2109375,-825.68359375,-920.8984375
1.5234375,804.19921875,828.125,-40.0390625,165.52734375,-992.67578125
1.52734375,-554.6875,-550.29296875,389.6484375,-1000.0,421.875
1.53125,-1000.0,-1000.0,-163.57421875,-865.234375,-818.359375
1.53515625,3.41796875,-477.05078125,-887.6953125,519.04296875,585.9375
1.5390625,-897.4609375,940.91796875,-880.37109375,-816.89453125,-808.59375
1.54296875,812.98828125,878.41796875,-236.328125,548.828125,-1000.0
1.5450000762939453,-544.43359375,-575.68359375,306.15234375,-929.19921875,182.6171875
1.5489063262939453,-1000.0,-1000.0,-195.3125,-927.734375,-865.72265625
1.5528125762939453,-380.859375,-678.7109375,-922.36328125,553.22265625,758.30078125
1.5567188262939453,954.58984375,789.55078125,-875.9765625,-849.12109375,-631.34765625
1.5606250762939453,937.5,981.4453125,-301.7578125,681.15234375,-1000.0
1.5645313262939453,-443.359375,-498.046875,331.0546875,-795.41015625,-53.22265625
1.5684375762939453,-1000.0,-1000.0,-2.44140625,-1000.0,-926.7578125
1.5723438262939453,-631.34765625,-799.8046875,-866.2109375,483.88671875,820.3125
1.5762500762939453,790.52734375,617.67578125,-953.125,-863.76953125,-547.8515625
1.5801563262939453,-941.89453125,-903.80859375,-353.515625,782.2265625,-1000.0
1.5840625762939453,-315.4296875,-329.1015625,296.38671875,-632.32421875,-514.6484375
1.5879688262939453,-1000.0,-1000.0,53.7109375,-1000.0,908.203125
1.5899999141693115,-739.74609375,-839.84375,-773.4375,303.7109375,886.71875
1.5939061641693115,641.6015625,527.83203125,-1000.0,-857.91015625,-579.58984375
1.5978124141693115,-850.5859375,-836.9140625,-459.9609375,807.12890625,-1000.0
1.6017186641693115,-32.2265625,-62.5,306.640625,-557.6171875,-690.4296875
1.6056249141693115,-1000.0,-1000.0,51.26953125,-1000.0,780.2734375
1.6095311641693115,-845.703125,-847.16796875,-826.66015625,38.0859375,969.7265625
1.6134374141693115,512.20703125,516.6015625,-1000.0,-890.13671875,-519.04296875
1.6173436641693115,-810.05859375,-812.5,-399.90234375,814.453125,-1000.0
1.6212499141693115,358.3984375,289.0625,297.8515625,-547.36328125,-774.4140625
1.6251561641693115,-1000.0,-1000.0,123.53515625,-1000.0,652.34375
1.6290624141693115,-894.53125,-935.546875,-737.79296875,-296.38671875,-924.8046875
1.6329686641693115,535.64453125,453.61328125,-1000.0,992.67578125,-360.83984375
1.6349999904632568,-835.44921875,-814.94140625,-602.5390625,906.73828125,-1000.0
1.6389062404632568,631.34765625,560.05859375,75.68359375,-471.19140625,-828.61328125
1.6428124904632568,-865.72265625,-848.14453125,277.34375,-1000.0,557.6171875
1.6467187404632568,-945.80078125,-1000.0,-582.03125,-572.265625,-857.421875
1.6506249904632568,565.4296875,313.96484375,-1000.0,834.47265625,-175.78125
1.6545312404632568,-870.1171875,-833.984375,-641.6015625,-954.58984375,-1000.0
1.6584374904632568,763.671875,710.9375,97.65625,-309.5703125,-834.47265625
1.6623437404632568,-681.640625,-679.6875,420.8984375,-1000.0,525.87890625
1.6662499904632568,-1000.0,-1000.0,-422.8515625,-702.1484375,-817.87109375
1.6701562404632568,398.92578125,82.03125,-997.55859375,682.12890625,142.08984375
1.6740624904632568,-864.74609375,-879.39453125,-712.40234375,-857.91015625,-1000.0
1.6779687404632568,812.98828125,797.36328125,0.9765625,-30.2734375,-921.38671875
1.6949999332427979,-571.2890625,-562.01171875,321.77734375,-1000.0,423.828125
1.6989061832427979,-1000.0,-1000.0,-402.83203125,-845.703125,-816.40625
1.7028124332427979,205.078125,-283.203125,-932.6171875,513.18359375,586.9140625
1.7067186832427979,-856.93359375,-983.3984375,-803.7109375,-809.5703125,-842.7734375
1.7106249332427979,798.828125,848.14453125,-227.5390625,351.5625,-1000.0
1.7145311832427979,-542.96875,-559.5703125,365.234375,-1000.0,369.140625
1.7184374332427979,-1000.0,-1000.0,-30.76171875,-894.04296875,-833.0078125
1.7223436832427979,-192.87109375,-593.26171875,-872.0703125,535.15625,683.10546875
1.7262499332427979,-958.49609375,872.0703125,-913.57421875,-830.56640625,-734.375
1.7301561832427979,852.5390625,921.38671875,-267.578125,608.3984375,-1000.0
1.7340624332427979,-522.94921875,-556.15234375,351.07421875,-883.7890625,206.0546875
1.7379686832427979,-1000.0,-1000.0,-112.79296875,-940.4296875,-871.09375
1.7249999046325684,-533.203125,-735.3515625,-912.109375,560.546875,771.97265625
1.7289061546325684,875.0,714.35546875,-909.1796875,-857.91015625,-573.2421875
1.7328124046325684,994.62890625,-962.890625,-349.12109375,718.75,-1000.0
1.7367186546325684,-400.87890625,-424.31640625,297.36328125,-730.95703125,-330.078125
1.7406249046325684,-1000.0,-1000.0,18.5546875,-1000.0,988.76953125
1.7445311546325684,-668.45703125,-826.66015625,-844.23828125,403.3203125,857.91015625
1.7484374046325684,730.46875,557.6171875,-976.07421875,-867.1875,-564.94140625
1.7523436546325684,-996.58203125,-937.5,-353.02734375,716.30859375,-1000.0
1.7562499046325684,-257.32421875,-243.1640625,345.703125,-608.88671875,-569.3359375
1.7601561546325684,-1000.0,-1000.0,87.890625,-1000.0,879.39453125
1.7640624046325684,-782.71484375,-845.21484375,-774.90234375,221.19140625,911.1328125
1.7679686546325684,586.9140625,521.484375,-1000.0,-854.4921875,-562.5
1.7850000858306885,-825.1953125,-820.80078125,-480.95703125,802.734375,-1000.0
1.7889063358306885,164.55078125,100.09765625,289.55078125,-549.8046875,-675.78125
1.7928125858306885,-1000.0,-1000.0,98.14453125,-1000.0,772.4609375
1.7967188358306885,-865.234375,-873.53515625,-796.38671875,-101.07421875,999.0234375
1.8006250858306885,518.5546875,503.90625,-1000.0,-925.78125,-462.40234375
1.8045313358306885,-817.3828125,-811.03515625,-460.9375,827.63671875,-1000.0
1.8084375858306885,548.33984375,435.546875,293.45703125,-550.78125,-788.0859375
1.8123438358306885,-929.19921875,-936.5234375,257.8125,-1000.0,601.5625
1.8162500858306885,-927.24609375,-999.0234375,-653.3203125,-401.85546875,-869.140625
1.8201563358306885,554.19921875,394.53125,-972.16796875,932.6171875,-189.94140625
1.8240625858306885,-854.00390625,-821.77734375,-611.81640625,972.16796875,-1000.0
1.8279688358306885,700.68359375,642.578125,60.546875,-388.671875,-853.02734375
1.818000078201294,-776.85546875,-772.4609375,294.43359375,-1000.0,527.34375
1.821906328201294,-1000.0,-1000.0,-571.77734375,-634.765625,-832.51953125
1.825812578201294,487.3046875,243.65234375,-1000.0,769.53125,-31.25
1.829718828201294,-871.58203125,-847.16796875,-717.7734375,-905.2734375,-1000.0
1.833625078201294,807.12890625,759.765625,8.30078125,-219.7265625,-858.88671875
1.837531328201294,-599.609375,-604.4921875,395.5078125,-1000.0,496.58203125
1.841437578201294,-1000.0,-1000.0,-360.83984375,-767.578125,-808.59375
1.845343828201294,303.7109375,-80.56640625,-976.5625,594.23828125,354.00390625
1.849250078201294,-857.91015625,-921.38671875,-723.6328125,-826.171875,-979.4921875
1.853156328201294,804.19921875,823.2421875,74.70703125,164.0625,-969.23828125
1.857062578201294,-554.6875,-547.8515625,354.4921875,-1000.0,413.57421875
1.860968828201294,-1000.0,-1000.0,-325.68359375,-867.67578125,-831.0546875
1.875,3.41796875,-457.03125,-915.0390625,521.484375,672.8515625
1.87890625,-897.4609375,949.21875,-836.42578125,-815.91796875,-746.58203125
1.8828125,815.4296875,875.0,-247.55859375,491.69921875,-1000.0
1.88671875,-547.36328125,-573.73046875,329.58984375,-954.1015625,240.234375
1.890625,-1000.0,-1000.0,-8.7890625,-917.48046875,-863.28125
1.89453125,-338.37890625,-669.43359375,-848.6328125,547.8515625,776.85546875
1.8984375,977.5390625,800.29296875,-918.9453125,-842.7734375,-642.08984375
1.90234375,912.109375,973.14453125,-317.87109375,656.25,-1000.0
1.90625,-475.09765625,-506.8359375,369.62890625,-818.359375,191.40625
1.91015625,-1000.0,-1000.0,-39.55078125,-1000.0,-868.65234375
1.9140625,-595.703125,-790.52734375,-913.0859375,480.95703125,781.25
1.91796875,816.40625,631.8359375,-932.12890625,-856.93359375,-542.96875
1.9210000038146973,-950.1953125,-910.64453125,-308.10546875,758.30078125,-1000.0
1.9249062538146973,-312.01171875,-339.84375,319.82421875,-671.38671875,-499.51171875
1.9288125038146973,-1000.0,-1000.0,-25.390625,-1000.0,916.015625
1.9327187538146973,-708.0078125,-839.84375,-861.81640625,328.61328125,884.27734375
1.9366250038146973,675.78125,528.3203125,-990.234375,-860.3515625,-577.1484375
1.9405312538146973,-857.421875,-839.35546875,-414.0625,810.546875,-1000.0
1.9444375038146973,-30.76171875,-78.125,306.640625,-564.453125,-636.71875
1.9483437538146973,-1000.0,-1000.0,136.23046875,-1000.0,833.49609375
1.9522500038146973,-845.21484375,-847.16796875,-754.39453125,112.79296875,937.01171875
1.9561562538146973,512.20703125,517.08984375,-1000.0,-875.48828125,-545.41015625
1.9600625038146973,-810.05859375,-812.98828125,-516.6015625,809.5703125,-1000.0
1.9639687538146973,358.3984375,260.25390625,257.32421875,-548.33984375,-681.15234375
1.9660000801086426,-1000.0,-1000.0,266.6015625,-1000.0,753.41796875
1.9699063301086426,-894.53125,-922.36328125,-673.33984375,-205.56640625,-956.54296875
1.9738125801086426,535.64453125,466.796875,-1000.0,-975.5859375,-380.37109375
1.9777188301086426,-835.44921875,-814.453125,-507.8125,892.08984375,-1000.0
1.9816250801086426,631.34765625,547.8515625,178.22265625,-463.8671875,-814.94140625
1.9855313301086426,-865.72265625,-859.86328125,274.90234375,-1000.0,548.33984375
1.9894375801086426,-945.80078125,-1000.0,-583.984375,-557.6171875,-838.37890625
1.9933438301086426,564.453125,328.61328125,-973.14453125,845.703125,-48.33984375
1.9972500801086426,-867.1875,-832.03125,-655.2734375,-958.0078125,-1000.0
2.0011563301086426,751.953125,703.61328125,-1.953125,-308.10546875,-871.58203125
2.0050625801086426,-694.82421875,-690.4296875,312.01171875,-1000.0,506.34765625
2.0089688301086426,-1000.0,-1000.0,-492.1875,-703.125,-818.84765625
2.009999990463257,398.4375,104.98046875,-999.51171875,683.10546875,120.60546875
2.013906240463257,-864.74609375,-874.51171875,-748.046875,-859.86328125,-1000.0
2.017812490463257,813.4765625,794.43359375,-38.0859375,-39.55078125,-901.3671875
2.021718740463257,-570.80078125,-564.453125,355.95703125,-1000.0,457.03125
2.025624990463257,-1000.0,-1000.0,-367.1875,-858.88671875,-797.36328125
2.029531240463257,217.28515625,-247.55859375,-977.05078125,527.34375,480.46875
2.033437490463257,-849.12109375,-967.28515625,-750.0,-804.6875,-915.0390625
2.037343740463257,511.71875,555.6640625,96.19140625,40.52734375,-724.12109375
2.041249990463257,-670.41015625,-682.12890625,409.66796875,-1000.0,515.13671875
2.045156240463257,-1000.0,-1000.0,-312.01171875,-840.33203125,-896.97265625
2.049062490463257,-180.17578125,-603.02734375,-924.31640625,508.7890625,753.90625
2.052968740463257,-933.59375,888.18359375,-870.60546875,-817.3828125,-661.1328125
2.055000066757202,831.54296875,915.52734375,-275.87890625,576.171875,-1000.0
2.058906316757202,-552.24609375,-558.59375,319.3359375,-908.203125,63.96484375
2.062812566757202,-1000.0,-1000.0,-38.57421875,-933.59375,-898.4375
2.066718816757202,-472.65625,-728.02734375,-871.09375,556.15234375,806.15234375
2.070625066757202,900.87890625,724.609375,-950.1953125,-852.05078125,-619.62890625
2.074531316757202,983.88671875,-970.21484375,-261.71875,695.3125,-1000.0
2.078437566757202,-394.53125,-434.5703125,424.8046875,-762.20703125,65.91796875
2.082343816757202,-1000.0,-1000.0,11.23046875,-1000.0,-895.99609375
2.086250066757202,-642.08984375,-828.61328125,-873.53515625,415.52734375,801.7578125
2.090156316757202,762.20703125,565.4296875,-975.09765625,-867.67578125,-536.62109375
2.094062566757202,-904.296875,-870.1171875,-372.55859375,817.3828125,-1000.0
2.097968816757202,-220.703125,-235.83984375,302.24609375,-578.61328125,-589.84375
2.0999999046325684,-1000.0,-1000.0,-20.01953125,-1000.0,859.86328125
2.1039061546325684,-767.578125,-839.84375,-850.5859375,256.8359375,927.24609375
2.1078124046325684,593.75,520.99609375,-997.0703125,-857.421875,-544.43359375
2.1117186546325684,-826.66015625,-823.2421875,-502.44140625,806.640625,-1000.0
2.1156249046325684,165.0390625,69.3359375,218.75,-555.17578125,-720.21484375
2.1195311546325684,-1000.0,-1000.0,174.8046875,-1000.0,741.69921875
2.1234374046325684,-865.234375,-865.234375,-713.8671875,-17.08984375,998.046875
2.1273436546325684,518.5546875,508.7890625,-1000.0,-902.34375,-478.515625
2.1312499046325684,-817.3828125,-811.5234375,-503.41796875,816.40625,-1000.0
2.1351561546325684,548.33984375,413.0859375,285.64453125,-545.8984375,-728.02734375
2.1390624046325684,-929.19921875,-951.66015625,350.5859375,-1000.0,688.96484375
2.1429686546325684,-927.24609375,-986.328125,-625.0,-376.46484375,-909.1796875
2.1600000858306885,553.22265625,408.69140625,-1000.0,943.84765625,-298.828125
2.1639063358306885,-851.07421875,-820.3125,-600.09765625,967.7734375,-1000.0
2.1678125858306885,685.546875,630.859375,97.65625,-386.71875,-841.796875
2.1717188358306885,-791.015625,-784.66796875,269.04296875,-1000.0,517.578125
2.1756250858306885,-1000.0,-1000.0,-589.84375,-635.25390625,-818.359375
2.1795313358306885,484.375,253.90625,-942.3828125,770.99609375,-62.5
2.1834375858306885,-866.69921875,-845.21484375,-628.90625,-908.69140625,-1000.0
2.1873438358306885,789.55078125,753.41796875,25.87890625,-229.4921875,-869.140625
2.1912500858306885,-622.55859375,-613.76953125,346.6796875,-1000.0,462.890625
2.1951563358306885,-1000.0,-1000.0,-328.61328125,-770.99609375,-806.15234375
2.1990625858306885,303.7109375,-61.03515625,-924.31640625,599.12109375,338.8671875
2.2029688358306885,-858.3984375,-916.015625,-798.828125,-831.54296875,-1000.0
2.2049999237060547,806.640625,819.3359375,-67.3828125,98.6328125,-923.828125
2.2089061737060547,-558.59375,-550.78125,382.8125,-1000.0,488.76953125
2.2128124237060547,-1000.0,-1000.0,-324.21875,-861.328125,-821.77734375
2.2167186737060547,45.8984375,-434.5703125,-966.30859375,519.04296875,569.82421875
2.2206249237060547,-889.16015625,958.984375,-803.7109375,-812.98828125,-837.890625
2.2245311737060547,813.4765625,871.58203125,-79.58984375,422.8515625,-1000.0
2.2284374237060547,-548.33984375,-571.77734375,396.97265625,-984.375,305.17578125
2.2323436737060547,-1000.0,-1000.0,-134.27734375,-905.76171875,-856.4453125
2.2362499237060547,-274.4140625,-661.62109375,-881.34765625,541.015625,771.484375
2.2401561737060547,-1000.0,810.05859375,-881.8359375,-834.9609375,-589.35546875
2.2440624237060547,902.83203125,964.84375,-339.84375,626.46484375,-1000.0
2.2479686737060547,-469.23828125,-515.625,289.0625,-852.5390625,-95.703125
2.25,-1000.0,-1000.0,-6.8359375,-986.328125,-941.89453125
2.25390625,-558.10546875,-783.203125,-861.328125,501.953125,831.54296875
2.2578125,844.7265625,644.04296875,-973.6328125,-860.83984375,-582.03125
2.26171875,-958.49609375,-918.9453125,-379.39453125,761.23046875,-1000.0
2.265625,-308.59375,-355.46875,361.328125,-676.7578125,-188.4765625
2.26953125,-1000.0,-1000.0,52.734375,-1000.0,-958.0078125
2.2734375,-702.63671875,-841.30859375,-856.4453125,362.3046875,833.0078125
2.27734375,681.640625,530.76171875,-988.28125,-862.3046875,-554.19921875
2.28125,-858.88671875,-842.7734375,-325.1953125,813.96484375,-1000.0
2.28515625,-30.2734375,-106.93359375,338.37890625,-569.82421875,-663.57421875
2.2890625,-1000.0,-1000.0,45.8984375,-1000.0,805.6640625
2.29296875,-845.703125,-844.7265625,-811.5234375,180.17578125,958.984375
2.2950000762939453,512.20703125,516.6015625,-1000.0,-861.81640625,-524.90234375
2.2989063262939453,-810.05859375,-813.4765625,-519.04296875,801.7578125,-1000.0
2.3028125762939453,358.3984375,235.83984375,187.01171875,-544.921875,-753.41796875
2.3067188262939453,-1000.0,-1000.0,201.171875,-1000.0,680.17578125
2.3106250762939453,-895.01953125,-912.109375,-685.05859375,-187.98828125,-939.453125
2.3145313262939453,535.15625,476.5625,-1000.0,-969.7265625,-376.953125
2.3184375762939453,-832.03125,-812.5,-513.671875,889.6484375,-1000.0
2.3223438262939453,609.86328125,526.85546875,201.66015625,-462.40234375,-776.85546875
2.3262500762939453,-882.32421875,-876.953125,286.62109375,-1000.0,623.046875
2.3301563262939453,-940.91796875,-1000.0,-604.98046875,-558.59375,-874.51171875
2.3340625762939453,561.03515625,339.84375,-1000.0,846.6796875,-206.54296875
2.3379688262939453,-861.328125,-829.58984375,-577.63671875,-960.9375,-1000.0
2.3399999141693115,729.00390625,689.94140625,296.38671875,-315.4296875,-847.16796875
2.3439061641693115,-719.23828125,-707.51953125,330.078125,-1000.0,489.74609375
2.3478124141693115,-1000.0,-1000.0,-580.078125,-707.03125,-810.546875
2.3517186641693115,396.97265625,121.09375,-978.02734375,689.94140625,207.51953125
2.3556249141693115,-865.72265625,-871.58203125,-717.7734375,-869.140625,-1000.0
2.3595311641693115,814.94140625,791.50390625,0.9765625,-106.4453125,-910.64453125
2.3634374141693115,-574.70703125,-567.87109375,387.6953125,-1000.0,476.07421875
2.3673436641693115,-1000.0,-1000.0,-265.625,-843.75,-812.01171875
2.3712499141693115,228.515625,-237.79296875,-912.109375,516.6015625,434.08203125
2.3751561641693115,-857.91015625,-968.75,-836.42578125,-812.98828125,-950.68359375
2.3790624141693115,803.7109375,842.28515625,-124.51171875,213.37890625,-967.7734375
2.3829686641693115,-550.78125,-556.640625,409.1796875,-1000.0,448.2421875
2.4000000953674316,-1000.0,-1000.0,-249.51171875,-873.046875,-829.58984375
2.4039063453674316,-85.9375,-564.94140625,-953.125,522.94921875,651.85546875
2.4078125953674316,-921.875,890.13671875,-833.984375,-817.87109375,-738.28125
2.4117188453674316,825.68359375,909.1796875,-233.88671875,548.828125,-1000.0
2.4156250953674316,-550.78125,-562.5,302.24609375,-929.19921875,102.5390625
2.4195313453674316,-1000.0,-1000.0,-48.33984375,-927.24609375,-891.11328125
2.4234375953674316,-377.44140625,-720.703125,-866.69921875,554.19921875,802.734375
2.4273438453674316,942.3828125,735.83984375,-880.859375,-852.5390625,-567.3828125
2.4312500953674316,967.28515625,-979.4921875,-267.578125,698.2421875,-1000.0
2.4351563453674316,-386.71875,-447.265625,339.84375,-769.04296875,-222.16796875
2.4390625953674316,-1000.0,-1000.0,6.8359375,-1000.0,-973.6328125
2.4429688453674316,-634.765625,-824.21875,-845.703125,449.21875,847.16796875
2.430000066757202,768.5546875,574.70703125,-987.79296875,-871.58203125,-562.5
2.433906316757202,-905.76171875,-876.953125,-422.8515625,819.3359375,-1000.0
2.437812566757202,-220.21484375,-257.32421875,318.359375,-583.0078125,-447.75390625
2.441718816757202,-1000.0,-1000.0,-5.859375,-1000.0,937.98828125
2.445625066757202,-768.06640625,-839.35546875,-870.60546875,292.48046875,878.90625
2.449531316757202,593.75,521.97265625,-981.4453125,-856.93359375,-569.82421875
2.453437566757202,-827.63671875,-825.1953125,-373.53515625,805.17578125,-1000.0
2.457343816757202,160.64453125,43.9453125,315.4296875,-555.17578125,-702.63671875
2.461250066757202,-1000.0,-1000.0,39.0625,-1000.0,732.421875
2.465156316757202,-866.69921875,-857.91015625,-806.640625,3.90625,-955.078125
2.469062566757202,520.5078125,515.13671875,-1000.0,-896.484375,-385.7421875
2.472968816757202,-815.91796875,-810.546875,-556.15234375,813.4765625,-1000.0
2.4749999046325684,502.9296875,391.11328125,146.484375,-544.43359375,-802.734375
2.4789061546325684,-949.21875,-963.8671875,217.7734375,-1000.0,616.2109375
2.4828124046325684,-919.43359375,-977.5390625,-613.76953125,-376.46484375,-898.92578125
2.4867186546325684,549.31640625,415.0390625,-1000.0,944.82421875,-312.5
2.4906249046325684,-846.19140625,-818.359375,-631.34765625,965.8203125,-1000.0
2.4945311546325684,667.48046875,620.60546875,158.203125,-390.13671875,-806.640625
2.4984374046325684,-807.12890625,-796.38671875,360.83984375,-1000.0,567.3828125
2.5023436546325684,-1000.0,-1000.0,-563.96484375,-636.71875,-843.26171875
2.5062499046325684,481.4453125,262.20703125,-1000.0,773.92578125,-59.08203125
2.5101561546325684,-862.3046875,-843.75,-645.5078125,-914.55078125,-1000.0
2.5140624046325684,773.92578125,749.51171875,136.23046875,-247.55859375,-870.1171875
2.5179686546325684,-649.4140625,-621.58203125,305.6640625,-1000.0,461.9140625
2.5350000858306885,-1000.0,-1000.0,-511.71875,-773.4375,-806.640625
2.5389063358306885,324.70703125,-41.50390625,-955.56640625,603.515625,424.31640625
2.5428125858306885,-860.83984375,-910.64453125,-764.16015625,-836.42578125,-947.265625
2.5467188358306885,810.05859375,816.40625,-104.98046875,36.1328125,-984.86328125
2.5506250858306885,-564.94140625,-552.24609375,332.51953125,-1000.0,413.0859375
2.5545313358306885,-1000.0,-1000.0,-239.2578125,-855.46875,-820.3125
2.5584375858306885,112.3046875,-414.55078125,-902.34375,517.578125,585.9375
2.5623438358306885,-875.9765625,966.796875,-859.375,-810.546875,-853.515625
2.5662500858306885,809.5703125,868.1640625,-194.3359375,358.88671875,-1000.0
2.5701563358306885,-548.828125,-569.82421875,415.0390625,-1000.0,407.71484375
2.5740625858306885,-1000.0,-1000.0,-127.9296875,-894.53125,-842.28515625
2.5779688358306885,-199.21875,-654.296875,-931.640625,536.1328125,711.9140625
2.5810000896453857,-974.12109375,818.359375,-866.2109375,-833.984375,-653.80859375
2.5849063396453857,890.625,959.47265625,-263.18359375,628.41796875,-1000.0
2.5888125896453857,-463.37890625,-520.99609375,309.5703125,-856.93359375,-47.8515625
2.5927188396453857,-1000.0,-1000.0,-33.203125,-972.65625,-927.734375
2.5966250896453857,-558.10546875,-777.34375,-871.09375,523.92578125,823.2421875
2.6005313396453857,845.21484375,652.83203125,-937.01171875,-864.2578125,-549.8046875
2.6044375896453857,-958.49609375,-923.33984375,-315.91796875,764.6484375,-1000.0
2.6083438396453857,-308.59375,-362.79296875,320.80078125,-682.6171875,-431.15234375
2.6122500896453857,-1000.0,-1000.0,48.828125,-1000.0,951.171875
2.6161563396453857,-702.63671875,-839.84375,-803.22265625,399.4140625,875.9765625
2.6200625896453857,681.640625,535.15625,-1000.0,-864.2578125,-573.73046875
2.6239688396453857,-858.88671875,-846.19140625,-438.4765625,813.4765625,-1000.0
2.625,-30.2734375,-125.9765625,304.19921875,-571.2890625,-517.08984375
2.62890625,-1000.0,-1000.0,59.08203125,-1000.0,907.71484375
2.6328125,-847.16796875,-843.26171875,-832.03125,205.56640625,906.73828125
2.63671875,514.16015625,516.6015625,-1000.0,-856.4453125,-550.78125
2.640625,-811.03515625,-813.4765625,-375.9765625,799.31640625,-1000.0
2.64453125,327.1484375,217.28515625,361.81640625,-542.96875,-724.609375
2.6484375,-1000.0,-1000.0,221.6796875,-1000.0,692.87109375
2.65234375,-890.13671875,-905.76171875,-695.3125,-187.98828125,-917.96875
2.65625,532.2265625,480.46875,-986.328125,-969.7265625,-314.94140625
2.66015625,-830.078125,-812.5,-506.34765625,890.13671875,-1000.0
2.6640625,601.5625,523.4375,114.74609375,-462.40234375,-828.125
2.66796875,-888.671875,-881.34765625,237.3046875,-1000.0,573.73046875
2.6700000762939453,-938.96484375,-1000.0,-613.28125,-560.05859375,-870.1171875
2.6739063262939453,559.5703125,347.16796875,-1000.0,850.5859375,-226.5625
2.6778125762939453,-858.3984375,-829.1015625,-664.0625,-969.7265625,-1000.0
2.6817188262939453,716.30859375,687.5,51.7578125,-335.9375,-837.890625
2.6856250762939453,-738.76953125,-712.40234375,319.82421875,-1000.0,516.6015625
2.6895313262939453,-1000.0,-1000.0,-481.4453125,-709.47265625,-819.3359375
2.6934375762939453,415.52734375,137.20703125,-980.46875,693.84765625,116.69921875
2.6973438262939453,-868.1640625,-868.65234375,-694.3359375,-875.9765625,-1000.0
2.7012500762939453,816.89453125,789.0625,30.2734375,-153.80859375,-892.08984375
2.7051563262939453,-579.1015625,-569.82421875,330.078125,-1000.0,469.7265625
2.7090625762939453,-1000.0,-1000.0,-409.1796875,-840.33203125,-815.4296875
2.7129688262939453,258.30078125,-220.21484375,-964.84375,516.6015625,528.80859375
2.7149999141693115,-858.3984375,-963.37890625,-710.44921875,-813.4765625,-871.58203125
2.7189061641693115,806.640625,839.84375,-57.12890625,163.57421875,-1000.0
2.7228124141693115,-556.640625,-555.17578125,313.96484375,-1000.0,340.8203125
2.7267186641693115,-1000.0,-1000.0,-216.30859375,-865.234375,-829.58984375
2.7306249141693115,0.0,-550.78125,-916.9921875,519.04296875,659.1796875
2.7345311641693115,-897.94921875,898.92578125,-841.796875,-816.89453125,-779.296875
2.7384374141693115,813.4765625,903.80859375,-117.1875,548.828125,-1000.0
2.7423436641693115,-544.921875,-564.453125,442.3828125,-929.19921875,312.98828125
2.7462499141693115,-1000.0,-1000.0,-93.26171875,-927.24609375,-848.6328125
2.7501561641693115,-376.46484375,-710.9375,-913.0859375,554.6875,751.46484375
2.7540624141693115,943.359375,747.55859375,-904.296875,-853.515625,-580.56640625
2.7579686641693115,967.28515625,-985.83984375,-237.79296875,700.1953125,-1000.0
2.759999990463257,-386.71875,-454.1015625,315.4296875,-773.92578125,-305.17578125
2.763906240463257,-1000.0,-1000.0,-96.19140625,-1000.0,993.65234375
2.767812490463257,-634.765625,-819.3359375,-876.46484375,475.09765625,857.421875
2.771718740463257,768.5546875,583.0078125,-968.26171875,-873.53515625,-564.94140625
2.775624990463257,-906.25,-880.37109375,-416.9921875,819.82421875,-1000.0
2.779531240463257,-220.21484375,-268.06640625,293.9453125,-583.984375,-504.8828125
2.783437490463257,-1000.0,-1000.0,115.234375,-1000.0,919.43359375
2.787343740463257,-769.53125,-839.35546875,-762.6953125,304.6875,886.23046875
2.791249990463257,596.19140625,522.4609375,-1000.0,-856.4453125,-575.68359375
2.795156240463257,-829.1015625,-826.171875,-468.26171875,804.6875,-1000.0
2.799062490463257,135.7421875,26.3671875,287.59765625,-554.19921875,-624.0234375
2.802968740463257,-1000.0,-1000.0,93.26171875,-1000.0,832.03125
2.805999994277954,-864.2578125,-854.00390625,-792.48046875,3.90625,961.9140625
2.809906244277954,519.53125,517.08984375,-1000.0,-896.484375,-505.859375
2.813812494277954,-815.4296875,-811.03515625,-458.0078125,813.96484375,-1000.0
2.817718744277954,474.609375,380.859375,267.578125,-544.43359375,-788.0859375
2.821624994277954,-961.42578125,-970.21484375,133.7890625,-1000.0,603.02734375
2.825531244277954,-915.0390625,-971.6796875,-688.4765625,-378.41796875,-874.0234375
2.829437494277954,545.8984375,422.8515625,-957.51953125,949.21875,-212.890625
2.833343744277954,-841.796875,-817.87109375,-615.72265625,953.61328125,-1000.0
2.837249994277954,650.390625,607.91015625,56.15234375,-413.57421875,-845.703125
2.841156244277954,-827.63671875,-805.6640625,264.6484375,-1000.0,545.8984375
2.845062494277954,-998.53515625,-1000.0,-569.3359375,-639.16015625,-844.7265625
2.848968744277954,493.65234375,269.53125,-995.60546875,778.3203125,-101.5625
2.865999937057495,-859.86328125,-841.796875,-707.03125,-925.78125,-1000.0
2.869906187057495,759.765625,742.1875,6.8359375,-280.76171875,-846.6796875
2.873812437057495,-673.828125,-631.34765625,354.4921875,-1000.0,512.6953125
2.877718687057495,-1000.0,-1000.0,-459.9609375,-774.4140625,-811.5234375
2.881624937057495,346.19140625,-23.92578125,-1000.0,605.95703125,239.74609375
2.885531187057495,-862.3046875,-906.25,-703.61328125,-840.8203125,-1000.0
2.889437437057495,813.4765625,813.4765625,107.421875,-17.578125,-951.66015625
2.893343687057495,-570.80078125,-553.22265625,392.08984375,-1000.0,403.3203125
2.897249937057495,-1000.0,-1000.0,-310.546875,-847.65625,-819.82421875
2.901156187057495,178.7109375,-396.484375,-922.8515625,514.16015625,604.00390625
2.905062437057495,-862.3046875,973.6328125,-829.1015625,-809.5703125,-802.24609375
2.908968687057495,801.7578125,865.234375,-213.8671875,359.375,-1000.0
2.9100000858306885,-544.921875,-568.359375,308.59375,-1000.0,257.8125
2.9139063358306885,-1000.0,-1000.0,-110.3515625,-899.90234375,-850.09765625
2.9178125858306885,-188.4765625,-647.4609375,-893.5546875,542.48046875,730.95703125
2.9217188358306885,-970.21484375,826.66015625,-900.390625,-835.9375,-693.84765625
2.9256250858306885,889.16015625,951.66015625,-184.5703125,530.76171875,-1000.0
2.9295313358306885,-462.890625,-530.2734375,406.25,-896.484375,205.56640625
2.9334375858306885,-1000.0,-1000.0,-24.90234375,-939.94140625,-863.76953125
2.9373438358306885,-558.10546875,-768.5546875,-875.48828125,541.9921875,775.87890625
2.9412500858306885,845.21484375,666.015625,-965.8203125,-864.74609375,-551.26953125
2.9451563358306885,-958.49609375,-931.15234375,-225.09765625,764.6484375,-1000.0
2.9490625858306885,-308.59375,-375.48828125,393.06640625,-682.12890625,-448.73046875
2.9529688358306885,-1000.0,-1000.0,-59.5703125,-1000.0,937.5
2.943000078201294,-705.078125,-839.35546875,-862.79296875,399.4140625,875.9765625
2.946906328201294,685.546875,539.55078125,-987.79296875,-858.88671875,-573.73046875
2.950812578201294,-864.74609375,-850.09765625,-452.63671875,807.6171875,-1000.0
2.954718828201294,-69.3359375,-153.3203125,266.6015625,-568.84765625,-646.484375
2.958625078201294,-1000.0,-1000.0,60.546875,-1000.0,825.1953125
2.962531328201294,-845.21484375,-841.30859375,-795.41015625,239.2578125,936.03515625
2.966437578201294,514.6484375,516.11328125,-1000.0,-872.55859375,-550.29296875
2.970343828201294,-812.01171875,-814.453125,-458.49609375,807.12890625,-1000.0
2.974250078201294,273.4375,192.87109375,324.21875,-545.8984375,-681.15234375
2.978156328201294,-1000.0,-1000.0,257.32421875,-1000.0,762.6953125
2.982062578201294,-882.32421875,-899.90234375,-715.33203125,-189.94140625,-968.75
2.985968828201294,527.83203125,483.88671875,-1000.0,-964.35546875,-407.2265625
3.0,-824.21875,-812.01171875,-519.53125,873.53515625,-1000.0
3.00390625,573.73046875,501.953125,191.89453125,-487.79296875,-813.96484375
3.0078125,-909.66796875,-893.06640625,233.3984375,-1000.0,565.4296875
3.01171875,-933.10546875,-1000.0,-632.32421875,-562.5,-856.4453125
3.015625,556.15234375,353.02734375,-966.796875,855.46875,-146.97265625
3.01953125,-853.02734375,-827.1484375,-548.33984375,-982.421875,-1000.0
3.0234375,696.77734375,676.26953125,115.72265625,-365.72265625,-858.88671875
3.02734375,-767.08984375,-725.5859375,312.98828125,-1000.0,505.37109375
3.03125,-1000.0,-1000.0,-420.41015625,-712.890625,-820.3125
3.03515625,439.94140625,153.3203125,-942.3828125,700.68359375,107.91015625
3.0390625,-871.09375,-864.74609375,-760.7421875,-887.20703125,-1000.0
3.04296875,819.3359375,782.2265625,-24.4140625,-229.98046875,-871.09375
3.0450000762939453,-583.49609375,-577.63671875,398.4375,-1000.0,513.18359375
3.0489063262939453,-1000.0,-1000.0,-435.546875,-821.2890625,-812.98828125
3.0528125762939453,292.48046875,-199.21875,-1000.0,523.92578125,398.4375
3.0567188262939453,-857.421875,-956.54296875,-749.51171875,-814.453125,-958.0078125
3.0606250762939453,804.6875,836.9140625,-87.890625,163.57421875,-982.421875
3.0645313262939453,-555.17578125,-553.7109375,383.30078125,-1000.0,411.62109375
3.0684375762939453,-1000.0,-1000.0,-157.71484375,-865.234375,-837.40234375
3.0723438262939453,3.90625,-541.015625,-899.90234375,519.04296875,699.21875
3.0762500762939453,-896.97265625,906.25,-852.5390625,-816.89453125,-693.84765625
3.0801563262939453,812.98828125,898.92578125,-273.4375,548.828125,-1000.0
3.0840625762939453,-544.43359375,-568.359375,298.828125,-929.19921875,130.37109375
3.0879688262939453,-1000.0,-1000.0,-74.70703125,-927.24609375,-886.23046875
3.0899999141693115,-376.46484375,-704.58984375,-858.88671875,554.6875,805.17578125
3.0939061641693115,943.359375,757.32421875,-928.7109375,-853.515625,-589.84375
3.0978124141693115,967.28515625,-994.62890625,-354.98046875,701.66015625,-1000.0
3.1017186641693115,-386.71875,-467.7734375,323.2421875,-776.3671875,-17.08984375
3.1056249141693115,-1000.0,-1000.0,-59.08203125,-1000.0,-910.15625
3.1095311641693115,-636.71875,-815.91796875,-892.08984375,488.28125,812.5
3.1134374141693115,772.4609375,590.8203125,-957.03125,-874.51171875,-543.45703125
3.1173436641693115,-913.0859375,-887.20703125,-286.1328125,819.82421875,-1000.0
3.1212499141693115,-241.2109375,-291.50390625,354.98046875,-583.49609375,-552.24609375
3.1251561641693115,-1000.0,-1000.0,-41.015625,-1000.0,887.20703125
3.1290624141693115,-770.99609375,-838.37890625,-853.02734375,304.6875,900.390625
3.1329686641693115,598.6328125,523.4375,-999.51171875,-856.93359375,-570.80078125
3.135999917984009,-832.51953125,-828.125,-477.5390625,804.6875,-1000.0
3.139906167984009,90.33203125,1.953125,256.8359375,-554.19921875,-679.19921875
3.143812417984009,-1000.0,-1000.0,159.66796875,-1000.0,791.015625
3.147718667984009,-860.3515625,-852.05078125,-748.53515625,4.39453125,971.19140625
3.151624917984009,518.5546875,517.08984375,-1000.0,-896.484375,-507.8125
3.155531167984009,-813.4765625,-811.5234375,-489.2578125,813.4765625,-1000.0
3.159437417984009,415.0390625,355.46875,275.390625,-544.43359375,-731.4453125
3.163343667984009,-987.79296875,-981.4453125,259.27734375,-1000.0,696.2890625
3.167249917984009,-904.78515625,-962.890625,-645.99609375,-380.859375,-924.31640625
3.171156167984009,540.0390625,428.7109375,-1000.0,954.58984375,-336.42578125
3.175062417984009,-835.9375,-816.89453125,-555.17578125,938.4765625,-1000.0
3.178968667984009,627.44140625,597.65625,184.08203125,-442.3828125,-831.54296875
3.180000066757202,-855.95703125,-814.94140625,251.953125,-1000.0,535.15625
3.183906316757202,-976.07421875,-1000.0,-610.3515625,-641.11328125,-839.35546875
3.187812566757202,518.06640625,278.3203125,-986.328125,782.71484375,-56.15234375
3.191718816757202,-864.2578125,-839.84375,-676.26953125,-937.98828125,-1000.0
3.195625066757202,762.20703125,734.375,50.78125,-313.96484375,-861.328125
3.199531316757202,-680.6640625,-642.578125,368.1640625,-1000.0,507.8125
3.203437566757202,-1000.0,-1000.0,-384.27734375,-758.30078125,-813.96484375
3.207343816757202,384.27734375,-1.953125,-940.91796875,622.0703125,210.9375
3.211250066757202,-864.2578125,-900.390625,-795.8984375,-845.21484375,-1000.0
3.215156316757202,813.96484375,810.05859375,-84.47265625,-33.203125,-909.66796875
3.219062566757202,-571.77734375,-554.6875,381.8359375,-1000.0,470.21484375
3.222968816757202,-1000.0,-1000.0,-341.30859375,-845.703125,-812.5
3.2249999046325684,204.58984375,-372.55859375,-976.5625,512.20703125,525.390625
3.2289061546325684,-857.421875,982.91015625,-790.52734375,-809.5703125,-864.74609375
3.2328124046325684,808.10546875,871.09375,-37.109375,358.88671875,-1000.0
3.2367186546325684,-553.22265625,-576.171875,356.93359375,-1000.0,289.55078125
3.2406249046325684,-1000.0,-1000.0,-245.60546875,-894.53125,-851.07421875
3.2445311546325684,7.8125,-437.98828125,-901.3671875,536.1328125,641.6015625
3.2484374046325684,-894.53125,915.0390625,-833.0078125,-834.47265625,-687.01171875
3.2523436546325684,855.46875,910.15625,-228.515625,631.8359375,-1000.0
3.2562499046325684,-446.77734375,-520.5078125,365.72265625,-865.72265625,64.94140625
3.2601561546325684,-1000.0,-1000.0,-23.92578125,-945.80078125,-894.53125
3.2640624046325684,-559.08203125,-758.30078125,-846.6796875,565.91796875,809.08203125
3.2679686546325684,847.16796875,680.17578125,-952.1484375,-869.140625,-556.640625
3.2850000858306885,-964.35546875,-937.5,-384.765625,764.6484375,-1000.0
3.2889063358306885,-321.77734375,-383.7890625,308.10546875,-681.640625,-279.296875
3.2928125858306885,-1000.0,-1000.0,-33.203125,-1000.0,-986.81640625
3.2967188358306885,-706.0546875,-837.40234375,-878.90625,399.4140625,847.65625
3.3006250858306885,687.5,542.96875,-988.76953125,-864.2578125,-560.546875
3.3045313358306885,-867.67578125,-852.05078125,-339.35546875,813.96484375,-1000.0
3.3084375858306885,-93.75,-165.0390625,358.88671875,-570.80078125,-602.5390625
3.3123438358306885,-1000.0,-1000.0,20.99609375,-1000.0,854.98046875
3.3162500858306885,-843.75,-839.84375,-836.42578125,205.078125,932.12890625
3.3201563358306885,515.13671875,516.11328125,-970.21484375,-856.4453125,-542.96875
3.3240625858306885,-812.5,-814.453125,-490.234375,799.31640625,-1000.0
3.3279688358306885,241.2109375,184.08203125,195.80078125,-542.96875,-748.046875
3.3299999237060547,-1000.0,-1000.0,149.4140625,-1000.0,698.2421875
3.3339061737060547,-877.44140625,-895.01953125,-730.46875,-191.40625,-964.35546875
3.3378124237060547,524.4140625,489.2578125,-1000.0,-960.9375,-427.734375
3.3417186737060547,-820.3125,-812.01171875,-585.9375,863.76953125,-1000.0
3.3456249237060547,552.734375,492.67578125,194.3359375,-502.9296875,-804.6875
3.3495311737060547,-925.78125,-899.90234375,304.6875,-1000.0,595.703125
3.3534374237060547,-928.22265625,-1000.0,-607.421875,-563.96484375,-877.9296875
3.3573436737060547,554.19921875,362.3046875,-1000.0,858.88671875,-244.140625
3.3612499237060547,-853.515625,-826.66015625,-580.56640625,-991.2109375,-1000.0
3.3651561737060547,699.21875,673.828125,235.83984375,-385.25390625,-846.6796875
3.3690624237060547,-771.97265625,-730.46875,317.3828125,-1000.0,504.8828125
3.3729686737060547,-1000.0,-1000.0,-535.15625,-700.68359375,-820.3125
3.375,465.33203125,169.43359375,-970.703125,710.44921875,83.984375
3.37890625,-873.53515625,-861.81640625,-726.07421875,-890.13671875,-1000.0
3.3828125,819.82421875,779.296875,-35.15625,-228.02734375,-896.97265625
3.38671875,-584.47265625,-580.078125,324.70703125,-1000.0,460.44921875
3.390625,-1000.0,-1000.0,-325.1953125,-803.7109375,-808.59375
3.39453125,304.19921875,-181.640625,-916.9921875,546.875,425.29296875
3.3984375,-857.421875,-951.171875,-789.55078125,-818.359375,-949.70703125
3.40234375,804.19921875,834.47265625,-126.953125,164.0625,-980.46875
3.40625,-554.19921875,-552.734375,420.41015625,-1000.0,424.8046875
3.41015625,-1000.0,-1000.0,-172.36328125,-874.51171875,-818.359375
3.4140625,13.671875,-516.6015625,-950.68359375,529.296875,615.72265625
3.41796875,-895.99609375,916.015625,-849.12109375,-815.4296875,-787.109375
3.4210000038146973,617.1875,698.2421875,-107.421875,352.5390625,-1000.0
3.4249062538146973,-619.62890625,-645.01953125,379.39453125,-1000.0,272.4609375
3.4288125038146973,-1000.0,-1000.0,-131.8359375,-903.3203125,-867.1875
3.4327187538146973,-382.8125,-701.66015625,-898.92578125,548.828125,770.01953125
3.4366250038146973,952.63671875,774.4140625,-923.33984375,-846.6796875,-601.5625
3.4405312538146973,764.6484375,802.734375,-187.01171875,505.37109375,-1000.0
3.4444375038146973,-474.609375,-550.29296875,414.0625,-852.05078125,-95.703125
3.4483437538146973,-1000.0,-1000.0,-24.4140625,-987.3046875,-958.49609375
3.4522500038146973,-653.3203125,-828.125,-851.07421875,473.14453125,834.9609375
3.4561562538146973,779.78515625,603.02734375,-972.65625,-869.140625,-559.08203125
3.4600625038146973,-917.96875,-891.11328125,-403.3203125,819.82421875,-1000.0
3.4639687538146973,-255.37109375,-306.15234375,334.47265625,-583.49609375,-442.87109375
3.4649999141693115,-1000.0,-1000.0,204.1015625,-1000.0,953.125
3.4689061641693115,-772.94921875,-837.40234375,-761.71875,304.6875,872.0703125
3.4728124141693115,602.5390625,523.4375,-1000.0,-856.4453125,-574.70703125
3.4767186641693115,-837.40234375,-829.58984375,-374.51171875,804.6875,-1000.0
3.4806249141693115,36.62109375,-11.23046875,308.59375,-554.19921875,-694.3359375
3.4845311641693115,-1000.0,-1000.0,187.98828125,-1000.0,770.5078125
3.4884374141693115,-854.98046875,-851.07421875,-731.4453125,3.90625,984.86328125
3.4923436641693115,517.08984375,517.08984375,-1000.0,-896.484375,-493.65234375
3.4962499141693115,-811.5234375,-811.5234375,-436.5234375,813.96484375,-1000.0
3.5001561641693115,365.234375,340.33203125,186.03515625,-544.43359375,-787.109375
3.5040624141693115,-1000.0,-988.28125,127.44140625,-1000.0,632.8125
3.5079686641693115,-895.99609375,-957.51953125,-709.47265625,-383.7890625,-911.62109375
3.509999990463257,536.1328125,432.6171875,-1000.0,961.9140625,-335.9375
3.513906240463257,-834.9609375,-815.91796875,-619.140625,920.41015625,-1000.0
3.517812490463257,628.90625,586.42578125,92.7734375,-477.5390625,-824.21875
3.521718740463257,-859.86328125,-824.21875,247.0703125,-1000.0,548.33984375
3.525624990463257,-963.8671875,-1000.0,-596.19140625,-631.34765625,-843.26171875
3.529531240463257,537.109375,284.66796875,-1000.0,789.55078125,-79.1015625
3.533437490463257,-866.69921875,-837.40234375,-618.1640625,-941.40625,-1000.0
3.537343740463257,763.671875,726.5625,205.56640625,-317.3828125,-848.14453125
3.541249990463257,-682.6171875,-653.3203125,379.8828125,-1000.0,517.578125
3.545156240463257,-1000.0,-1000.0,-534.1796875,-750.0,-813.4765625
3.549062490463257,398.92578125,12.6953125,-981.4453125,630.37109375,232.91015625
3.552968740463257,-864.74609375,-896.484375,-750.9765625,-847.65625,-1000.0
3.555000066757202,812.98828125,807.6171875,-103.02734375,-32.71484375,-947.265625
3.558906316757202,-570.80078125,-556.640625,315.4296875,-1000.0,410.64453125
3.562812566757202,-1000.0,-1000.0,-315.91796875,-845.703125,-809.08203125
3.566718816757202,205.078125,-359.86328125,-939.94140625,512.20703125,520.5078125
3.570625066757202,-857.421875,988.28125,-827.1484375,-809.5703125,-889.6484375
3.574531316757202,798.828125,859.86328125,-105.46875,358.88671875,-1000.0
3.578437566757202,-542.96875,-564.94140625,430.17578125,-1000.0,369.140625
3.582343816757202,-1000.0,-1000.0,-151.85546875,-894.53125,-841.30859375
3.586250066757202,-188.96484375,-625.9765625,-930.17578125,536.1328125,722.65625
3.590156316757202,-968.26171875,846.19140625,-874.0234375,-834.9609375,-651.85546875
3.594062566757202,883.30078125,938.4765625,-201.171875,631.8359375,-1000.0
3.597968816757202,-472.16796875,-541.9921875,324.70703125,-865.72265625,-9.765625
3.5999999046325684,-1000.0,-1000.0,-110.83984375,-945.80078125,-917.48046875
3.6039061546325684,-560.546875,-753.90625,-882.32421875,565.4296875,806.15234375
3.6078124046325684,851.07421875,688.4765625,-954.1015625,-864.2578125,-568.84765625
3.6117186546325684,-972.65625,-944.82421875,-389.6484375,758.30078125,-1000.0
3.6156249046325684,-342.28515625,-398.92578125,293.45703125,-679.6875,-398.92578125
3.6195311546325684,-1000.0,-1000.0,-1.953125,-985.83984375,959.9609375
3.6234374046325684,-708.49609375,-836.42578125,-845.21484375,433.59375,869.140625
3.6273436546325684,691.89453125,545.41015625,-975.09765625,-879.8828125,-568.84765625
3.6312499046325684,-875.0,-854.4921875,-395.99609375,821.77734375,-1000.0
3.6351561546325684,-142.578125,-177.24609375,318.84765625,-573.73046875,-579.58984375
3.6390624046325684,-1000.0,-1000.0,169.921875,-1000.0,881.8359375
3.6429686546325684,-837.890625,-840.33203125,-759.765625,205.078125,908.69140625
3.6600000858306885,517.578125,517.08984375,-1000.0,-856.4453125,-569.82421875
3.6639063358306885,-813.96484375,-816.40625,-442.3828125,799.31640625,-1000.0
3.6678125858306885,193.84765625,161.1328125,273.4375,-542.96875,-735.3515625
3.6717188358306885,-1000.0,-1000.0,101.5625,-1000.0,704.1015625
3.6756250858306885,-870.1171875,-890.625,-764.6484375,-193.84765625,-954.58984375
3.6795313358306885,520.99609375,491.2109375,-1000.0,-955.078125,-403.3203125
3.6834375858306885,-817.87109375,-812.01171875,-519.53125,844.23828125,-1000.0
3.6873438358306885,548.33984375,477.5390625,185.546875,-533.69140625,-817.87109375
3.6912500858306885,-929.19921875,-909.1796875,181.640625,-1000.0,583.984375
3.6951563358306885,-927.24609375,-1000.0,-613.28125,-560.05859375,-878.90625
3.6990625858306885,554.19921875,368.1640625,-988.76953125,863.76953125,-259.27734375
3.7029688358306885,-854.00390625,-824.70703125,-684.5703125,-1000.0,-1000.0
3.694000005722046,701.171875,665.0390625,82.03125,-403.3203125,-836.42578125
3.697906255722046,-776.85546875,-741.2109375,338.37890625,-1000.0,528.3203125
3.701812505722046,-1000.0,-1000.0,-560.05859375,-690.4296875,-828.125
3.705718755722046,488.28125,183.10546875,-1000.0,718.26171875,13.671875
3.709625005722046,-875.48828125,-857.91015625,-668.45703125,-892.08984375,-1000.0
3.713531255722046,819.3359375,774.90234375,77.63671875,-226.07421875,-867.67578125
3.717437505722046,-583.984375,-585.9375,400.390625,-1000.0,486.81640625
3.721343755722046,-1000.0,-1000.0,-345.21484375,-791.015625,-809.08203125
3.725250005722046,304.19921875,-162.109375,-939.94140625,563.4765625,424.8046875
3.729156255722046,-857.421875,-944.82421875,-736.81640625,-820.80078125,-935.05859375
3.733062505722046,804.19921875,833.0078125,-111.81640625,164.55078125,-1000.0
3.736968755722046,-554.6875,-552.24609375,315.4296875,-1000.0,366.69921875
3.75,-1000.0,-1000.0,-263.18359375,-865.234375,-819.82421875
3.75390625,3.41796875,-508.30078125,-927.24609375,518.5546875,617.67578125
3.7578125,-897.4609375,925.29296875,-855.46875,-816.89453125,-802.24609375
3.76171875,812.98828125,888.18359375,-204.1015625,548.828125,-1000.0
3.765625,-544.43359375,-572.75390625,405.2734375,-929.19921875,276.85546875
3.76953125,-1000.0,-1000.0,47.36328125,-927.24609375,-847.65625
3.7734375,-377.9296875,-687.5,-853.02734375,554.19921875,747.0703125
3.77734375,947.75390625,777.83203125,-945.3125,-853.515625,-599.609375
3.78125,955.078125,992.1875,-201.171875,701.171875,-1000.0
3.78515625,-409.66796875,-483.3984375,362.3046875,-776.85546875,-237.79296875
3.7890625,-1000.0,-1000.0,-99.12109375,-1000.0,-982.91015625
3.79296875,-638.18359375,-807.6171875,-881.8359375,487.79296875,844.23828125
3.7950000762939453,775.87890625,604.4921875,-964.35546875,-871.58203125,-562.98828125
3.7989063262939453,-922.8515625,-894.53125,-401.85546875,810.05859375,-1000.0
3.8028125762939453,-270.01953125,-312.01171875,275.87890625,-596.19140625,-536.1328125
3.8067188262939453,-1000.0,-1000.0,26.3671875,-1000.0,897.94921875
3.8106250762939453,-773.4375,-838.37890625,-831.54296875,304.6875,890.13671875
3.8145313262939453,605.95703125,524.90234375,-1000.0,-856.93359375,-579.58984375
3.8184375762939453,-840.33203125,-832.51953125,-400.390625,804.6875,-1000.0
3.8223438262939453,-2.9296875,-27.83203125,340.33203125,-554.19921875,-658.69140625
3.8262500762939453,-1000.0,-1000.0,102.5390625,-1000.0,813.96484375
3.8301563262939453,-850.09765625,-850.09765625,-783.203125,3.90625,957.03125
3.8340625762939453,514.16015625,517.08984375,-1000.0,-896.484375,-521.484375
3.8379688262939453,-810.546875,-812.01171875,-476.07421875,814.453125,-1000.0
3.8399999141693115,358.88671875,321.2890625,360.83984375,-544.921875,-705.078125
3.8439061641693115,-1000.0,-998.046875,181.640625,-1000.0,720.703125
3.8478124141693115,-894.53125,-948.2421875,-738.76953125,-376.46484375,-930.6640625
3.8517186641693115,535.15625,442.3828125,-994.140625,964.84375,-334.47265625
3.8556249141693115,-835.44921875,-816.40625,-595.703125,918.9453125,-1000.0
3.8595311641693115,631.34765625,583.49609375,166.015625,-478.02734375,-828.61328125
3.8634374141693115,-865.72265625,-828.125,316.89453125,-1000.0,553.7109375
3.8673436641693115,-945.80078125,-1000.0,-544.43359375,-612.3046875,-851.07421875
3.8712499141693115,565.4296875,293.45703125,-984.375,804.19921875,-142.578125
3.8751561641693115,-870.1171875,-837.40234375,-719.23828125,-945.80078125,-1000.0
3.8790624141693115,763.671875,725.09765625,12.6953125,-314.453125,-842.7734375
3.8829686641693115,-681.640625,-657.2265625,342.28515625,-1000.0,516.6015625
3.884999990463257,-1000.0,-1000.0,-519.53125,-729.00390625,-813.96484375
3.888906240463257,398.92578125,36.62109375,-1000.0,653.3203125,179.6875
3.892812490463257,-864.74609375,-890.625,-721.19140625,-852.05078125,-1000.0
3.896718740463257,812.98828125,804.6875,-47.36328125,-31.25,-932.6171875
3.900624990463257,-571.2890625,-557.6171875,333.49609375,-1000.0,417.96875
3.904531240463257,-1000.0,-1000.0,-299.31640625,-845.21484375,-809.08203125
3.908437490463257,205.078125,-328.61328125,-932.12890625,512.6953125,534.1796875
3.912343740463257,-857.421875,-1000.0,-754.8828125,-809.08203125,-865.72265625
3.916249990463257,798.828125,854.4921875,-73.73046875,358.88671875,-1000.0
3.920156240463257,-542.96875,-562.5,336.9140625,-1000.0,301.26953125
3.924062490463257,-1000.0,-1000.0,-166.015625,-894.53125,-836.42578125
3.927968740463257,-189.94140625,-610.83984375,-876.953125,535.64453125,697.265625
3.930000066757202,-966.30859375,858.88671875,-895.99609375,-834.47265625,-710.9375
3.933906316757202,876.953125,930.6640625,-304.19921875,631.8359375,-1000.0
3.937812566757202,-481.93359375,-547.8515625,337.40234375,-865.72265625,131.34765625
3.941718816757202,-1000.0,-1000.0,-82.03125,-945.80078125,-877.44140625
3.945625066757202,-562.01171875,-746.58203125,-906.73828125,565.4296875,784.1796875
3.949531316757202,853.515625,697.75390625,-930.6640625,-867.67578125,-561.5234375
3.953437566757202,-979.98046875,-949.70703125,-226.07421875,757.32421875,-1000.0
3.957343816757202,-358.3984375,-405.76171875,375.0,-689.453125,-393.5546875
3.961250066757202,-1000.0,-1000.0,-50.78125,-1000.0,962.40234375
3.965156316757202,-711.42578125,-834.47265625,-859.86328125,398.92578125,868.1640625
3.969062566757202,697.75390625,549.31640625,-991.2109375,-864.2578125,-569.82421875
3.972968816757202,-883.7890625,-857.421875,-417.48046875,813.96484375,-1000.0
3.990000009536743,-201.66015625,-187.5,302.24609375,-570.80078125,-579.1015625
3.993906259536743,-1000.0,-1000.0,65.4296875,-1000.0,875.9765625
3.997812509536743,-817.87109375,-839.84375,-794.921875,205.56640625,908.203125
4.001718759536743,534.1796875,517.578125,-1000.0,-856.93359375,-569.3359375
4.005625009536743,-811.5234375,-812.98828125,-482.421875,804.6875,-1000.0
4.009531259536743,157.2265625,136.71875,310.05859375,-549.31640625,-696.2890625
4.013437509536743,-1000.0,-1000.0,248.046875,-1000.0,741.2109375
4.017343759536743,-765.625,-786.1328125,-705.56640625,-95.703125,929.19921875
4.021250009536743,552.24609375,528.80859375,-1000.0,-917.48046875,-454.58984375
4.025156259536743,-833.49609375,-827.63671875,-472.16796875,818.84765625,-1000.0
4.029062509536743,556.15234375,473.6328125,317.3828125,-544.43359375,-823.73046875
4.032968759536743,-932.12890625,-919.43359375,221.19140625,-1000.0,585.44921875
4.03600001335144,-927.24609375,-1000.0,-669.921875,-528.80859375,-875.9765625
4.03990626335144,554.19921875,373.53515625,-1000.0,876.953125,-247.55859375
4.04381251335144,-854.00390625,-823.73046875,-620.60546875,994.140625,-1000.0
4.04771876335144,700.68359375,658.69140625,125.9765625,-400.390625,-846.6796875
4.05162501335144,-776.85546875,-749.51171875,319.3359375,-1000.0,511.71875
4.05553126335144,-1000.0,-1000.0,-479.00390625,-675.29296875,-824.70703125
4.05943751335144,488.28125,199.21875,-957.03125,731.93359375,35.15625
4.06334376335144,-875.48828125,-854.98046875,-725.5859375,-895.99609375,-1000.0
4.06725001335144,818.84765625,770.01953125,-37.109375,-224.12109375,-873.53515625
4.07115626335144,-583.984375,-591.30859375,441.89453125,-1000.0,491.2109375
4.07506251335144,-1000.0,-1000.0,-259.765625,-779.78515625,-807.12890625
4.07896876335144,304.19921875,-143.06640625,-966.30859375,578.125,360.3515625
4.068000078201294,-857.421875,-939.453125,-788.57421875,-823.2421875,-968.75
4.071906328201294,804.19921875,830.56640625,-76.66015625,165.0390625,-990.234375
4.075812578201294,-554.6875,-550.78125,337.890625,-1000.0,372.55859375
4.079718828201294,-1000.0,-1000.0,-291.50390625,-865.234375,-822.265625
4.083625078201294,3.41796875,-498.046875,-933.10546875,519.04296875,642.08984375
4.087531328201294,-897.4609375,931.15234375,-805.6640625,-816.89453125,-786.1328125
4.091437578201294,812.98828125,883.30078125,-134.27734375,548.828125,-1000.0
4.095343828201294,-544.43359375,-575.68359375,389.16015625,-929.19921875,283.203125
4.099250078201294,-1000.0,-1000.0,-72.265625,-927.24609375,-853.02734375
4.103156328201294,-379.8828125,-685.546875,-869.62890625,554.19921875,752.44140625
4.107062578201294,952.1484375,783.203125,-937.5,-851.07421875,-618.65234375
4.110968828201294,943.84765625,984.86328125,-339.35546875,691.89453125,-1000.0
4.125,-431.640625,-495.1171875,333.49609375,-785.64453125,-58.59375
4.12890625,-1000.0,-1000.0,-58.10546875,-1000.0,-923.828125
4.1328125,-640.13671875,-804.6875,-893.06640625,486.328125,820.80078125
4.13671875,779.78515625,610.3515625,-966.796875,-868.1640625,-560.05859375
4.140625,-932.6171875,-899.90234375,-287.109375,798.33984375,-1000.0
4.14453125,-297.36328125,-322.75390625,438.96484375,-611.81640625,-389.6484375
4.1484375,-1000.0,-1000.0,74.21875,-1000.0,964.35546875
4.15234375,-762.6953125,-838.37890625,-822.265625,304.19921875,865.234375
4.15625,618.65234375,525.87890625,-966.30859375,-856.93359375,-570.80078125
4.16015625,-845.703125,-833.49609375,-422.36328125,804.6875,-1000.0
4.1640625,-33.69140625,-39.55078125,244.62890625,-554.19921875,-695.80078125
4.16796875,-1000.0,-1000.0,78.125,-1000.0,779.78515625
4.170000076293945,-845.703125,-849.12109375,-782.71484375,4.39453125,961.42578125
4.173906326293945,512.20703125,516.6015625,-1000.0,-896.97265625,-534.66796875
4.177812576293945,-809.5703125,-812.01171875,-532.71484375,815.4296875,-1000.0
4.181718826293945,358.88671875,311.5234375,190.91796875,-546.38671875,-760.7421875
4.185625076293945,-1000.0,-1000.0,166.50390625,-1000.0,662.109375
4.189531326293945,-895.01953125,-945.3125,-693.359375,-348.6328125,-919.921875
4.193437576293945,535.15625,444.3359375,-1000.0,974.12109375,-341.30859375
4.197343826293945,-835.44921875,-815.4296875,-524.90234375,914.55078125,-1000.0
4.201250076293945,631.34765625,573.2421875,246.58203125,-476.07421875,-828.125
4.205156326293945,-865.72265625,-835.9375,275.87890625,-1000.0,551.7578125
4.209062576293945,-945.80078125,-1000.0,-600.5859375,-600.5859375,-849.12109375
4.212968826293945,564.94140625,298.828125,-1000.0,812.98828125,-134.765625
4.216000080108643,-870.1171875,-836.42578125,-537.59765625,-948.2421875,-1000.0
4.219906330108643,764.16015625,721.6796875,178.7109375,-312.01171875,-867.67578125
4.223812580108643,-681.640625,-663.57421875,313.96484375,-1000.0,480.46875
4.227718830108643,-1000.0,-1000.0,-433.59375,-709.9609375,-811.03515625
4.231625080108643,398.92578125,48.828125,-965.8203125,674.31640625,170.8984375
4.235531330108643,-865.234375,-888.18359375,-723.6328125,-856.4453125,-1000.0
4.239437580108643,812.98828125,803.22265625,24.4140625,-30.2734375,-921.38671875
4.243343830108643,-571.2890625,-559.5703125,425.78125,-1000.0,440.4296875
4.247250080108643,-1000.0,-1000.0,-235.83984375,-845.21484375,-808.10546875
4.251156330108643,205.078125,-308.59375,-951.171875,512.6953125,484.375
4.255062580108643,-857.421875,-992.67578125,-823.2421875,-809.08203125,-899.90234375
4.258968830108643,798.828125,851.5625,-93.75,358.88671875,-1000.0
4.259999990463257,-542.96875,-561.03515625,346.19140625,-1000.0,336.42578125
4.263906240463257,-1000.0,-1000.0,-287.59765625,-894.53125,-834.9609375
4.267812490463257,-190.91796875,-604.00390625,-929.6875,535.64453125,701.171875
4.271718740463257,-964.35546875,863.28125,-869.140625,-834.9609375,-693.84765625
4.275624990463257,875.0,932.12890625,-329.58984375,631.8359375,-1000.0
4.279531240463257,-499.51171875,-557.6171875,315.91796875,-865.72265625,93.26171875
4.283437490463257,-1000.0,-1000.0,-7.32421875,-945.80078125,-894.53125
4.287343740463257,-462.890625,-643.06640625,-847.16796875,564.453125,702.63671875
4.291249990463257,888.671875,736.328125,-935.546875,-864.74609375,-588.37890625
4.295156240463257,-999.51171875,-968.26171875,-371.09375,746.09375,-1000.0
4.299062490463257,-357.91015625,-400.390625,327.1484375,-701.66015625,-346.6796875
4.302968740463257,-1000.0,-1000.0,-21.484375,-1000.0,992.1875
4.305999994277954,-699.21875,-833.0078125,-887.6953125,398.4375,857.421875
4.309906244277954,712.890625,552.24609375,-982.91015625,-864.2578125,-565.4296875
4.313812494277954,-891.11328125,-858.88671875,-372.55859375,813.96484375,-1000.0
4.317718744277954,-227.5390625,-193.84765625,320.3125,-570.80078125,-624.0234375
4.321624994277954,-1000.0,-1000.0,16.6015625,-1000.0,843.26171875
4.325531244277954,-798.33984375,-840.33203125,-832.51953125,205.078125,922.8515625
4.329437494277954,553.22265625,519.04296875,-968.26171875,-856.93359375,-566.40625
4.333343744277954,-820.3125,-818.84765625,-448.73046875,801.26953125,-1000.0
4.337249994277954,164.0625,127.44140625,244.62890625,-545.41015625,-734.375
4.341156244277954,-1000.0,-1000.0,130.37109375,-1000.0,717.28515625
4.345062494277954,-865.234375,-880.37109375,-748.53515625,-166.015625,-979.00390625
4.348968744277954,518.5546875,499.0234375,-1000.0,-943.359375,-449.21875
4.349999904632568,-817.3828125,-811.5234375,-573.2421875,832.51953125,-1000.0
4.353906154632568,548.33984375,456.0546875,157.71484375,-551.7578125,-805.6640625
4.357812404632568,-929.19921875,-923.33984375,232.91015625,-1000.0,596.6796875
4.361718654632568,-927.24609375,-1000.0,-648.4375,-491.2109375,-882.32421875
4.365624904632568,554.19921875,380.859375,-1000.0,893.06640625,-262.6953125
4.369531154632568,-854.00390625,-823.2421875,-545.8984375,987.79296875,-1000.0
4.373437404632568,700.68359375,652.83203125,287.109375,-396.484375,-840.33203125
4.377343654632568,-776.85546875,-758.30078125,331.0546875,-1000.0,523.4375
4.381249904632568,-1000.0,-1000.0,-568.359375,-652.34375,-827.1484375
4.385156154632568,488.28125,218.26171875,-968.26171875,753.41796875,5.859375
4.389062404632568,-875.48828125,-852.05078125,-638.18359375,-901.3671875,-1000.0
4.392968654632568,818.84765625,766.11328125,-22.4609375,-221.19140625,-888.671875
4.4100000858306885,-583.984375,-597.16796875,295.41015625,-1000.0,459.47265625
4.4139063358306885,-1000.0,-1000.0,-403.3203125,-767.578125,-806.15234375
4.4178125858306885,304.19921875,-115.72265625,-952.63671875,594.23828125,337.40234375
4.4217188358306885,-857.421875,-931.15234375,-800.78125,-826.171875,-989.74609375
4.4256250858306885,804.19921875,827.1484375,-151.85546875,165.52734375,-959.9609375
4.4295313358306885,-554.6875,-549.8046875,409.66796875,-1000.0,424.31640625
4.4334375858306885,-1000.0,-1000.0,-151.85546875,-865.234375,-824.70703125
4.4373438358306885,3.41796875,-478.02734375,-927.734375,519.04296875,629.39453125
4.4412500858306885,-897.4609375,940.91796875,-857.421875,-816.89453125,-802.24609375
4.4451563358306885,812.98828125,878.41796875,-56.640625,548.33984375,-1000.0
4.4490625858306885,-544.43359375,-576.171875,405.2734375,-929.19921875,335.44921875
4.4529688358306885,-1000.0,-1000.0,-182.6171875,-927.24609375,-853.02734375
4.443000078201294,-381.8359375,-680.17578125,-896.484375,553.22265625,751.46484375
4.446906328201294,956.54296875,789.0625,-910.64453125,-848.6328125,-604.98046875
4.450812578201294,931.640625,980.46875,-330.56640625,676.7578125,-1000.0
4.454718828201294,-454.58984375,-499.51171875,307.6171875,-799.31640625,-127.9296875
4.458625078201294,-1000.0,-1000.0,-60.05859375,-1000.0,-947.75390625
4.462531328201294,-633.30078125,-799.8046875,-872.55859375,483.3984375,831.54296875
4.466437578201294,788.57421875,618.65234375,-949.70703125,-863.28125,-558.59375
4.470343828201294,-941.89453125,-904.78515625,-400.87890625,780.2734375,-1000.0
4.474250078201294,-317.3828125,-332.51953125,337.890625,-635.25390625,-425.29296875
4.478156328201294,-1000.0,-1000.0,169.43359375,-1000.0,957.03125
4.482062578201294,-748.046875,-839.35546875,-786.62109375,303.7109375,870.1171875
4.485968828201294,632.32421875,527.34375,-1000.0,-857.421875,-572.265625
4.5,-848.6328125,-836.42578125,-386.23046875,804.6875,-1000.0
4.50390625,-32.71484375,-59.5703125,318.84765625,-554.6875,-680.6640625
4.5078125,-1000.0,-1000.0,40.52734375,-1000.0,791.9921875
4.51171875,-845.703125,-847.65625,-820.3125,4.8828125,964.84375
4.515625,512.20703125,516.6015625,-995.1171875,-896.484375,-520.5078125
4.51953125,-810.05859375,-812.5,-370.1171875,816.89453125,-1000.0
4.5234375,358.3984375,291.015625,341.796875,-548.33984375,-750.9765625
4.52734375,-1000.0,-1000.0,166.015625,-1000.0,680.17578125
4.53125,-894.53125,-937.98828125,-682.6171875,-319.3359375,-933.59375
4.53515625,535.64453125,449.70703125,-1000.0,984.375,-366.2109375
4.5390625,-835.44921875,-814.453125,-634.27734375,909.66796875,-1000.0
4.54296875,631.34765625,561.03515625,140.625,-473.14453125,-822.75390625
4.545000076293945,-865.72265625,-846.19140625,334.9609375,-1000.0,563.4765625
4.548906326293945,-945.80078125,-1000.0,-598.14453125,-588.8671875,-857.91015625
4.552812576293945,565.4296875,306.15234375,-1000.0,821.77734375,-173.828125
4.556718826293945,-870.1171875,-833.984375,-648.4375,-951.171875,-1000.0
4.560625076293945,763.671875,712.40234375,67.87109375,-310.546875,-839.35546875
4.564531326293945,-681.640625,-675.29296875,355.46875,-1000.0,511.71875
4.568437576293945,-1000.0,-1000.0,-449.21875,-702.1484375,-812.98828125
4.572343826293945,398.92578125,62.98828125,-968.75,682.6171875,196.2890625
4.576250076293945,-865.234375,-883.7890625,-720.703125,-857.91015625,-1000.0
4.580156326293945,812.98828125,800.29296875,-77.1484375,-29.78515625,-926.7578125
4.584062576293945,-570.80078125,-561.03515625,305.17578125,-1000.0,431.15234375
4.587968826293945,-1000.0,-1000.0,-328.125,-845.21484375,-820.3125
4.591000080108643,205.078125,-299.8046875,-920.41015625,512.6953125,610.3515625
4.594906330108643,-856.93359375,-989.2578125,-801.7578125,-809.08203125,-823.73046875
4.598812580108643,798.828125,850.5859375,-119.140625,358.88671875,-1000.0
4.602718830108643,-542.96875,-560.546875,388.18359375,-1000.0,360.3515625
4.606625080108643,-1000.0,-1000.0,-160.15625,-895.01953125,-840.33203125
4.610531330108643,-192.87109375,-599.12109375,-910.64453125,535.64453125,715.8203125
4.614437580108643,-958.49609375,868.1640625,-871.58203125,-832.51953125,-708.0078125
4.618343830108643,853.515625,923.828125,-124.0234375,617.1875,-1000.0
4.622250080108643,-518.5546875,-554.6875,414.55078125,-876.953125,245.1171875
4.626156330108643,-1000.0,-1000.0,-154.78515625,-942.3828125,-866.2109375
4.630062580108643,-565.91796875,-739.74609375,-902.34375,562.01171875,773.92578125
4.633968830108643,860.83984375,708.984375,-932.6171875,-860.3515625,-559.08203125
4.634999990463257,-999.0234375,-959.47265625,-392.08984375,728.515625,-1000.0
4.638906240463257,-401.85546875,-419.921875,271.484375,-720.703125,-374.0234375
4.642812490463257,-1000.0,-1000.0,-25.87890625,-1000.0,970.21484375
4.646718740463257,-690.91796875,-832.51953125,-867.1875,397.4609375,865.72265625
4.650624990463257,717.28515625,555.17578125,-978.515625,-864.2578125,-568.359375
4.654531240463257,-893.06640625,-862.79296875,-388.671875,813.96484375,-1000.0
4.658437490463257,-226.07421875,-207.03125,346.19140625,-571.77734375,-554.6875
4.662343740463257,-1000.0,-1000.0,219.23828125,-1000.0,894.04296875
4.666249990463257,-788.0859375,-839.84375,-715.33203125,209.9609375,897.4609375
4.670156240463257,567.3828125,519.04296875,-1000.0,-857.421875,-579.1015625
4.674062490463257,-822.265625,-819.82421875,-433.10546875,802.734375,-1000.0
4.677968740463257,164.0625,115.234375,291.50390625,-547.36328125,-733.3984375
4.694999933242798,-1000.0,-1000.0,44.43359375,-1000.0,716.30859375
4.698906183242798,-865.234375,-876.953125,-814.94140625,-136.71875,-976.5625
4.702812433242798,518.5546875,500.9765625,-1000.0,-935.546875,-443.359375
4.706718683242798,-817.3828125,-811.5234375,-562.01171875,831.54296875,-1000.0
4.710624933242798,548.33984375,446.77734375,144.53125,-552.24609375,-809.5703125
4.714531183242798,-929.19921875,-930.17578125,266.11328125,-1000.0,594.7265625
4.718437433242798,-927.24609375,-1000.0,-601.5625,-432.6171875,-883.7890625
4.722343683242798,554.19921875,390.625,-993.65234375,918.9453125,-272.4609375
4.726249933242798,-854.00390625,-823.2421875,-668.9453125,977.5390625,-1000.0
4.730156183242798,700.68359375,649.4140625,46.38671875,-391.11328125,-839.35546875
4.734062433242798,-776.85546875,-763.671875,366.69921875,-1000.0,527.83203125
4.737968683242798,-1000.0,-1000.0,-542.48046875,-634.765625,-830.56640625
4.724999904632568,487.79296875,230.46875,-1000.0,769.53125,-24.4140625
4.728906154632568,-873.046875,-849.609375,-683.10546875,-905.2734375,-1000.0
4.732812404632568,812.5,763.671875,94.7265625,-219.7265625,-877.44140625
4.736718654632568,-592.7734375,-600.5859375,329.58984375,-1000.0,462.40234375
4.740624904632568,-1000.0,-1000.0,-505.37109375,-767.578125,-805.6640625
4.744531154632568,304.19921875,-92.28515625,-973.14453125,593.75,389.6484375
4.748437404632568,-857.421875,-924.8046875,-749.0234375,-826.171875,-972.16796875
4.752343654632568,804.19921875,824.21875,-108.88671875,165.52734375,-961.9140625
4.756249904632568,-554.6875,-548.33984375,366.2109375,-1000.0,441.89453125
4.760156154632568,-1000.0,-1000.0,-199.70703125,-866.69921875,-834.9609375
4.764062404632568,3.90625,-465.8203125,-886.23046875,520.5078125,678.7109375
4.767968654632568,-896.97265625,946.2890625,-849.609375,-816.40625,-742.67578125
4.799999952316284,813.4765625,876.46484375,-261.23046875,516.11328125,-1000.0
4.803906202316284,-544.43359375,-574.70703125,359.375,-943.359375,260.7421875
4.807812452316284,-1000.0,-1000.0,-90.8203125,-937.01171875,-845.21484375
4.811718702316284,-365.234375,-662.109375,-922.8515625,562.01171875,736.81640625
4.815624952316284,979.98046875,814.453125,-917.48046875,-825.68359375,-643.5546875
4.819531202316284,547.8515625,599.609375,-100.5859375,287.59765625,-1000.0
4.823437452316284,-645.01953125,-682.6171875,431.640625,-990.72265625,27.83203125
4.827343702316284,-1000.0,-1000.0,-100.5859375,-941.40625,-954.1015625
4.831249952316284,-651.3671875,-825.68359375,-878.41796875,450.68359375,831.54296875
4.835156202316284,807.12890625,634.27734375,-914.0625,-849.609375,-560.05859375
4.839062452316284,-944.3359375,-907.2265625,-359.86328125,765.625,-1000.0
4.842968702316284,-315.4296875,-335.44921875,306.15234375,-654.296875,-421.38671875
4.821000099182129,-1000.0,-1000.0,7.8125,-1000.0,956.54296875
4.824906349182129,-729.4921875,-839.84375,-849.609375,303.22265625,869.62890625
4.828812599182129,652.34375,528.3203125,-1000.0,-858.88671875,-571.2890625
4.832718849182129,-853.02734375,-837.890625,-465.8203125,808.10546875,-1000.0
4.836625099182129,-31.73828125,-70.3125,277.34375,-559.5703125,-653.80859375
4.840531349182129,-1000.0,-1000.0,125.48828125,-1000.0,819.82421875
4.844437599182129,-845.703125,-846.6796875,-773.92578125,55.17578125,945.3125
4.848343849182129,512.20703125,516.6015625,-1000.0,-886.71875,-543.9453125
4.852250099182129,-810.05859375,-812.5,-457.03125,813.4765625,-1000.0
4.856156349182129,358.3984375,281.25,274.90234375,-547.8515625,-767.578125
4.860062599182129,-1000.0,-1000.0,144.04296875,-1000.0,655.76171875
4.863968849182129,-894.53125,-931.640625,-739.74609375,-270.99609375,-921.875
4.890000104904175,535.15625,458.0078125,-1000.0,-999.0234375,-350.09765625
4.893906354904175,-830.078125,-814.94140625,-550.78125,908.203125,-1000.0
4.897812604904175,625.0,557.12890625,129.8828125,-475.09765625,-817.3828125
4.901718854904175,-863.76953125,-851.07421875,254.39453125,-1000.0,542.48046875
4.905625104904175,-846.19140625,-1000.0,-573.73046875,-458.0078125,-833.984375
4.909531354904175,599.12109375,317.3828125,-943.84765625,879.39453125,-10.7421875
4.913437604904175,-885.25390625,-833.984375,-564.453125,-974.12109375,-1000.0
4.917343854904175,768.06640625,710.44921875,104.00390625,-300.29296875,-871.58203125
4.921250104904175,-688.96484375,-681.15234375,349.609375,-1000.0,515.13671875
4.925156354904175,-1000.0,-1000.0,-522.4609375,-702.1484375,-818.359375
4.929062604904175,398.92578125,91.30859375,-1000.0,682.6171875,134.27734375
4.932968854904175,-865.234375,-877.9296875,-717.7734375,-857.91015625,-1000.0
4.920000076293945,812.98828125,796.875,17.578125,-30.2734375,-920.8984375
4.923906326293945,-571.2890625,-561.5234375,323.2421875,-1000.0,426.26953125
4.927812576293945,-1000.0,-1000.0,-416.015625,-846.6796875,-809.08203125
4.931718826293945,204.58984375,-277.34375,-949.21875,513.671875,506.8359375
4.935625076293945,-857.421875,-981.4453125,-799.31640625,-800.29296875,-894.04296875
4.939531326293945,798.828125,847.16796875,-100.09765625,326.171875,-1000.0
4.943437576293945,-542.96875,-559.08203125,380.37109375,-1000.0,368.65234375
4.947343826293945,-1000.0,-1000.0,-253.90625,-695.3125,-835.9375
4.951250076293945,-193.359375,-589.35546875,-930.17578125,609.375,700.1953125
4.955156326293945,-957.03125,874.0234375,-867.1875,-862.79296875,-698.73046875
4.959062576293945,850.09765625,920.41015625,-283.203125,618.1640625,-1000.0
4.962968826293945,-529.78515625,-555.17578125,358.3984375,-893.5546875,124.51171875
4.9649999141693115,-1000.0,-1000.0,63.4765625,-938.96484375,-878.90625
4.9689061641693115,-512.6953125,-733.3984375,-851.5625,560.05859375,775.390625
4.9728124141693115,883.7890625,716.796875,-961.9140625,-856.93359375,-579.58984375
4.9767186641693115,990.72265625,-963.8671875,-320.3125,715.8203125,-1000.0
4.9806249141693115,-398.92578125,-424.8046875,311.03515625,-735.83984375,-363.76953125
4.9845311641693115,-1000.0,-1000.0,24.4140625,-1000.0,973.14453125
4.9884374141693115,-665.52734375,-830.078125,-851.5625,402.34375,862.79296875
4.9923436641693115,740.234375,559.5703125,-934.5703125,-865.72265625,-567.3828125
4.9962499141693115,-898.92578125,-864.74609375,-303.22265625,815.4296875,-1000.0
5.0001561641693115,-222.16796875,-213.8671875,294.43359375,-574.70703125,-617.1875
5.0040624141693115,-1000.0,-1000.0,0.9765625,-1000.0,853.515625
5.0079686641693115,-768.06640625,-840.33203125,-833.0078125,229.98046875,907.71484375
5.009999990463257,593.26171875,520.01953125,-1000.0,-856.93359375,-583.984375
5.013906240463257,-826.66015625,-821.2890625,-495.1171875,804.19921875,-1000.0
5.017812490463257,165.0390625,98.6328125,248.53515625,-551.26953125,-700.1953125
5.021718740463257,-1000.0,-1000.0,94.23828125,-1000.0,751.953125
5.025624990463257,-865.234375,-872.55859375,-780.76171875,-81.54296875,-985.83984375
5.029531240463257,518.5546875,504.8828125,-1000.0,-919.921875,-443.84765625
5.033437490463257,-817.3828125,-811.5234375,-500.0,825.68359375,-1000.0
5.037343740463257,548.33984375,429.6875,302.734375,-550.29296875,-773.4375
5.041249990463257,-929.19921875,-940.91796875,269.53125,-1000.0,633.7890625
5.045156240463257,-927.24609375,-995.1171875,-652.83203125,-379.39453125,-893.5546875
5.049062490463257,554.19921875,399.4140625,-990.72265625,942.3828125,-280.2734375
5.052968740463257,-854.00390625,-821.77734375,-567.3828125,968.75,-1000.0
5.055000066757202,700.68359375,641.6015625,65.4296875,-386.71875,-848.6328125
5.058906316757202,-776.85546875,-773.4375,256.34765625,-1000.0,516.11328125
5.062812566757202,-1000.0,-1000.0,-551.7578125,-634.765625,-833.0078125
5.066718816757202,487.3046875,246.09375,-1000.0,769.53125,-44.43359375
5.070625066757202,-872.0703125,-846.6796875,-703.61328125,-905.2734375,-1000.0
5.074531316757202,809.08203125,758.7890625,43.9453125,-220.21484375,-869.140625
5.078437566757202,-596.6796875,-605.46875,432.12890625,-1000.0,483.88671875
5.082343816757202,-1000.0,-1000.0,-309.5703125,-768.5546875,-807.6171875
5.086250066757202,303.7109375,-81.0546875,-975.5859375,595.703125,300.78125
5.090156316757202,-857.421875,-921.38671875,-769.04296875,-827.63671875,-994.62890625
5.094062566757202,804.19921875,823.73046875,28.80859375,147.4609375,-972.65625
5.097968816757202,-554.19921875,-548.33984375,344.23828125,-1000.0,384.27734375
5.099999904632568,-1000.0,-1000.0,-372.55859375,-865.72265625,-815.4296875
5.103906154632568,3.90625,-453.61328125,-940.91796875,520.99609375,598.6328125
5.107812404632568,-897.4609375,951.171875,-812.01171875,-814.94140625,-810.05859375
5.111718654632568,814.94140625,874.51171875,-253.90625,475.5859375,-1000.0
5.115624904632568,-546.875,-573.73046875,328.61328125,-961.42578125,232.421875
5.119531154632568,-1000.0,-1000.0,-52.734375,-915.0390625,-861.81640625
5.123437404632568,-347.16796875,-669.921875,-884.765625,546.38671875,766.11328125
5.127343654632568,974.12109375,800.78125,-847.65625,-839.84375,-616.69921875
5.131249904632568,913.57421875,971.19140625,-230.46875,643.5546875,-1000.0
5.135156154632568,-476.07421875,-509.765625,376.46484375,-829.58984375,-39.55078125
5.139062404632568,-1000.0,-1000.0,78.125,-1000.0,-921.875
5.142968654632568,-597.16796875,-791.9921875,-848.14453125,479.00390625,811.03515625
5.145999908447266,814.94140625,630.859375,-983.88671875,-856.4453125,-558.59375
5.149906158447266,-949.70703125,-912.109375,-326.171875,757.8125,-1000.0
5.153812408447266,-312.01171875,-344.7265625,330.56640625,-669.921875,-497.55859375
5.157718658447266,-1000.0,-1000.0,-35.15625,-1000.0,916.9921875
5.161624908447266,-705.56640625,-840.8203125,-865.234375,320.3125,883.7890625
5.165531158447266,678.22265625,529.296875,-961.42578125,-860.3515625,-577.63671875
5.169437408447266,-857.91015625,-840.33203125,-401.3671875,810.546875,-1000.0
5.173343658447266,-30.76171875,-88.37890625,283.203125,-564.453125,-669.921875
5.177249908447266,-1000.0,-1000.0,51.26953125,-1000.0,808.10546875
5.181156158447266,-845.703125,-845.703125,-786.62109375,110.83984375,944.3359375
5.185062408447266,511.71875,516.6015625,-1000.0,-875.9765625,-550.78125
5.188968658447266,-810.05859375,-812.98828125,-546.38671875,809.5703125,-1000.0
5.204999923706055,358.3984375,261.23046875,185.546875,-547.8515625,-744.140625
5.208906173706055,-1000.0,-1000.0,157.71484375,-1000.0,682.6171875
5.212812423706055,-894.53125,-923.33984375,-728.515625,-202.63671875,-929.6875
5.216718673706055,535.64453125,464.84375,-1000.0,-978.515625,-353.515625
5.220624923706055,-835.44921875,-813.96484375,-482.421875,793.45703125,-1000.0
5.224531173706055,631.34765625,545.8984375,315.91796875,-498.046875,-812.98828125
5.228437423706055,-865.72265625,-861.81640625,303.22265625,-1000.0,577.1484375
5.232343673706055,-945.80078125,-1000.0,-618.65234375,-565.91796875,-860.3515625
5.236249923706055,564.453125,329.1015625,-988.76953125,848.14453125,-175.29296875
5.240156173706055,-867.1875,-832.03125,-597.16796875,-958.0078125,-1000.0
5.244062423706055,751.953125,703.61328125,58.59375,-308.59375,-857.421875
5.247968673706055,-694.82421875,-690.4296875,298.33984375,-1000.0,497.0703125
5.25,-1000.0,-1000.0,-521.97265625,-702.63671875,-816.89453125
5.25390625,397.94921875,106.4453125,-1000.0,682.12890625,115.72265625
5.2578125,-859.86328125,-874.51171875,-745.1171875,-853.02734375,-1000.0
5.26171875,806.640625,794.43359375,-79.58984375,-38.0859375,-903.3203125
5.265625,-569.3359375,-563.96484375,217.7734375,-1000.0,456.0546875
5.26953125,-1000.0,-1000.0,-377.44140625,-748.046875,-808.10546875
5.2734375,238.76953125,-258.30078125,-934.5703125,549.31640625,464.84375
5.27734375,-873.53515625,-975.5859375,-812.5,-826.66015625,-907.2265625
5.28125,808.59375,844.7265625,-40.52734375,320.3125,-1000.0
5.28515625,-548.33984375,-557.6171875,366.2109375,-1000.0,326.171875
5.2890625,-1000.0,-1000.0,-267.578125,-888.18359375,-832.51953125
5.29296875,-165.0390625,-579.1015625,-930.17578125,531.25,687.98828125
5.295000076293945,-943.84765625,880.37109375,-813.96484375,-826.171875,-710.9375
5.298906326293945,833.0078125,916.50390625,-245.1171875,583.49609375,-1000.0
5.302812576293945,-551.7578125,-557.12890625,283.69140625,-902.34375,88.8671875
5.306718826293945,-1000.0,-1000.0,-94.23828125,-935.05859375,-887.6953125
5.310625076293945,-474.12109375,-728.515625,-895.01953125,557.6171875,784.1796875
5.314531326293945,900.390625,723.6328125,-910.64453125,-853.515625,-588.37890625
5.318437576293945,984.375,-968.75,-283.203125,702.1484375,-1000.0
5.322343826293945,-394.53125,-431.15234375,348.6328125,-754.8828125,-254.39453125
5.326250076293945,-1000.0,-1000.0,0.48828125,-1000.0,-983.3984375
5.330156326293945,-636.71875,-828.125,-853.02734375,416.015625,853.515625
5.334062576293945,767.08984375,564.94140625,-992.67578125,-867.67578125,-565.4296875
5.337968826293945,-905.2734375,-869.140625,-358.3984375,817.3828125,-1000.0
5.3399999141693115,-220.21484375,-230.95703125,409.1796875,-578.61328125,-393.06640625
5.3439061641693115,-1000.0,-1000.0,37.109375,-1000.0,969.23828125
5.3478124141693115,-767.578125,-839.35546875,-848.14453125,257.32421875,869.140625
5.3517186641693115,593.75,520.01953125,-989.74609375,-857.421875,-563.4765625
5.3556249141693115,-826.66015625,-821.77734375,-478.515625,807.12890625,-1000.0
5.3595311641693115,165.0390625,86.9140625,277.83203125,-556.15234375,-692.87109375
5.3634374141693115,-1000.0,-1000.0,144.53125,-1000.0,754.39453125
5.3673436641693115,-865.234375,-867.67578125,-732.91015625,-6.34765625,-978.515625
5.3712499141693115,518.5546875,509.765625,-1000.0,-899.4140625,-429.6875
5.3751561641693115,-817.3828125,-812.01171875,-580.56640625,815.4296875,-1000.0
5.3790624141693115,548.33984375,425.78125,175.78125,-544.921875,-800.78125
5.3829686641693115,-929.19921875,-945.3125,301.26953125,-1000.0,612.3046875
5.384999990463257,-927.734375,-988.76953125,-647.94921875,-375.9765625,-894.53125
5.388906240463257,553.22265625,409.66796875,-1000.0,943.359375,-306.15234375
5.392812490463257,-846.6796875,-821.2890625,-618.65234375,973.14453125,-1000.0
5.396718740463257,683.59375,636.23046875,92.28515625,-392.578125,-840.8203125
5.400624990463257,-784.66796875,-779.78515625,298.33984375,-1000.0,518.06640625
5.404531240463257,-918.45703125,-1000.0,-554.6875,-535.15625,-828.61328125
5.408437490463257,519.04296875,253.90625,-986.328125,803.7109375,-17.08984375
5.412343740463257,-885.25390625,-845.703125,-591.796875,-921.38671875,-1000.0
5.416249990463257,805.17578125,760.25390625,83.0078125,-211.9140625,-889.6484375
5.420156240463257,-615.234375,-616.2109375,325.68359375,-1000.0,473.14453125
5.424062490463257,-1000.0,-1000.0,-423.828125,-770.99609375,-809.08203125
5.427968740463257,303.7109375,20.99609375,-956.0546875,598.6328125,190.91796875
5.430999994277954,-857.91015625,-888.671875,-755.37109375,-830.078125,-1000.0
5.434906244277954,805.6640625,807.6171875,-81.54296875,111.81640625,-940.4296875
5.438812494277954,-556.640625,-541.015625,368.65234375,-1000.0,405.76171875
5.442718744277954,-1000.0,-1000.0,-308.10546875,-862.3046875,-811.03515625
5.446624994277954,25.390625,-439.453125,-968.75,520.01953125,572.75390625
5.450531244277954,-893.06640625,956.54296875,-808.59375,-813.4765625,-825.68359375
5.454437494277954,814.453125,872.0703125,-76.171875,437.98828125,-1000.0
5.458343744277954,-547.8515625,-572.265625,356.4453125,-978.02734375,227.05078125
5.462249994277954,-1000.0,-1000.0,-235.3515625,-908.203125,-858.3984375
5.466156244277954,-306.15234375,-664.0625,-913.0859375,541.9921875,747.55859375
5.470062494277954,988.76953125,807.12890625,-890.625,-834.9609375,-631.8359375
5.473968744277954,907.2265625,966.30859375,-331.0546875,625.48828125,-1000.0
5.490000009536743,-472.16796875,-514.6484375,289.55078125,-849.609375,-88.8671875
5.493906259536743,-1000.0,-1000.0,-71.77734375,-994.62890625,-937.5
5.497812509536743,-576.66015625,-787.109375,-875.0,489.2578125,821.77734375
5.501718759536743,831.0546875,638.671875,-956.0546875,-857.91015625,-566.89453125
5.505625009536743,-954.1015625,-916.50390625,-402.34375,758.7890625,-1000.0
5.509531259536743,-310.05859375,-352.05078125,333.0078125,-672.36328125,-392.578125
5.513437509536743,-1000.0,-1000.0,171.38671875,-1000.0,967.28515625
5.517343759536743,-702.1484375,-841.30859375,-779.296875,333.984375,869.62890625
5.521250009536743,681.640625,530.76171875,-1000.0,-860.83984375,-570.80078125
5.525156259536743,-858.88671875,-842.28515625,-375.48828125,811.5234375,-1000.0
5.529062509536743,-30.2734375,-105.46875,389.6484375,-566.40625,-517.08984375
5.532968759536743,-1000.0,-1000.0,62.5,-1000.0,900.87890625
5.5350000858306885,-845.703125,-844.7265625,-837.40234375,131.8359375,920.41015625
5.5389063358306885,512.20703125,516.6015625,-999.0234375,-871.58203125,-531.25
5.5428125858306885,-810.05859375,-813.4765625,-522.94921875,813.4765625,-1000.0
5.5467188358306885,358.3984375,237.79296875,185.546875,-554.19921875,-758.30078125
5.5506250858306885,-1000.0,-1000.0,142.08984375,-1000.0,670.41015625
5.5545313358306885,-895.01953125,-916.9921875,-707.51953125,-88.37890625,-931.15234375
5.5584375858306885,535.15625,468.75,-997.55859375,-936.03515625,-364.74609375
5.5623438358306885,-833.0078125,-812.5,-566.40625,873.53515625,-1000.0
5.5662500858306885,616.69921875,532.71484375,144.53125,-454.58984375,-815.4296875
5.5701563358306885,-876.953125,-871.58203125,338.8671875,-1000.0,578.125
5.5740625858306885,-942.3828125,-1000.0,-565.4296875,-557.6171875,-864.74609375
5.5779688358306885,562.01171875,333.49609375,-1000.0,846.19140625,-201.171875
5.569000005722046,-863.28125,-829.58984375,-642.08984375,-958.0078125,-1000.0
5.572906255722046,734.86328125,693.359375,87.40234375,-309.5703125,-849.12109375
5.576812505722046,-712.890625,-702.1484375,299.8046875,-1000.0,498.046875
5.580718755722046,-1000.0,-1000.0,-555.6640625,-708.0078125,-809.5703125
5.584625005722046,403.80859375,116.2109375,-995.1171875,691.89453125,145.99609375
5.588531255722046,-867.1875,-875.0,-658.203125,-895.01953125,-1000.0
5.592437505722046,713.8671875,692.3828125,71.2890625,-167.48046875,-809.5703125
5.596343755722046,-605.46875,-601.07421875,378.41796875,-1000.0,490.234375
5.600250005722046,-1000.0,-1000.0,-300.29296875,-835.44921875,-825.1953125
5.604156255722046,200.1953125,-261.23046875,-898.92578125,511.71875,487.79296875
5.608062505722046,-854.98046875,-971.19140625,-813.4765625,-810.546875,-915.0390625
5.611968755722046,802.24609375,844.23828125,-196.2890625,233.88671875,-1000.0
5.625,-547.8515625,-557.12890625,363.28125,-1000.0,377.9296875
5.62890625,-1000.0,-1000.0,-158.203125,-881.34765625,-827.1484375
5.6328125,-125.48828125,-567.3828125,-935.546875,530.76171875,674.31640625
5.63671875,-936.03515625,883.30078125,-878.41796875,-821.2890625,-758.7890625
5.640625,730.46875,812.01171875,-86.42578125,457.03125,-985.83984375
5.64453125,-585.9375,-596.19140625,476.5625,-957.51953125,372.55859375
5.6484375,-1000.0,-1000.0,-69.82421875,-913.0859375,-869.140625
5.65234375,-440.4296875,-733.3984375,-881.8359375,546.875,771.97265625
5.65625,921.38671875,731.93359375,-887.20703125,-849.609375,-572.265625
5.66015625,977.05078125,-974.609375,-308.10546875,696.77734375,-1000.0
5.6640625,-391.11328125,-441.40625,320.80078125,-766.11328125,-236.81640625
5.66796875,-1000.0,-1000.0,-40.52734375,-1000.0,-976.5625
5.670000076293945,-634.765625,-827.63671875,-876.953125,434.5703125,844.23828125
5.673906326293945,769.04296875,568.359375,-977.5390625,-869.62890625,-559.5703125
5.677812576293945,-905.76171875,-872.55859375,-430.6640625,818.84765625,-1000.0
5.681718826293945,-220.21484375,-243.65234375,287.109375,-581.0546875,-539.55078125
5.685625076293945,-1000.0,-1000.0,40.0390625,-1000.0,897.4609375
5.689531326293945,-767.578125,-838.37890625,-828.125,283.69140625,894.53125
5.693437576293945,593.75,520.99609375,-1000.0,-859.375,-577.63671875
5.697343826293945,-826.66015625,-839.35546875,-357.421875,706.54296875,-1000.0
5.701250076293945,165.0390625,55.17578125,351.07421875,-589.84375,-719.7265625
5.705156326293945,-1000.0,-1000.0,50.29296875,-1000.0,735.83984375
5.709062576293945,-865.72265625,-862.79296875,-810.546875,-3.90625,-991.2109375
5.712968826293945,519.04296875,512.6953125,-1000.0,-894.04296875,-464.84375
5.7149999141693115,-816.89453125,-811.5234375,-402.34375,813.4765625,-1000.0
5.7189061641693115,537.109375,412.59765625,296.38671875,-543.9453125,-808.59375
5.7228124141693115,-934.08203125,-952.63671875,180.17578125,-1000.0,602.5390625
5.7267186641693115,-925.78125,-983.3984375,-657.71484375,-369.62890625,-895.01953125
5.7306249141693115,552.24609375,413.57421875,-1000.0,941.89453125,-309.5703125
5.7345311641693115,-849.609375,-820.3125,-589.84375,868.1640625,-1000.0
5.7384374141693115,679.6875,629.8828125,140.13671875,-420.41015625,-833.984375
5.7423436641693115,-796.38671875,-787.59765625,357.421875,-1000.0,538.57421875
5.7462499141693115,-1000.0,-1000.0,-504.8828125,-644.04296875,-839.84375
5.7501561641693115,483.3984375,260.7421875,-1000.0,774.90234375,-80.078125
5.7540624141693115,-865.72265625,-844.7265625,-687.5,-911.1328125,-1000.0
5.7579686641693115,787.109375,752.9296875,65.4296875,-237.3046875,-873.53515625
5.760999917984009,-629.39453125,-615.72265625,308.59375,-1000.0,462.890625
5.764906167984009,-1000.0,-1000.0,-484.86328125,-771.97265625,-806.640625
5.768812417984009,315.91796875,-49.31640625,-961.9140625,600.5859375,326.171875
5.772718667984009,-859.86328125,-913.0859375,-761.23046875,-833.49609375,-995.1171875
5.776624917984009,808.10546875,817.3828125,-135.7421875,75.68359375,-952.1484375
5.780531167984009,-561.03515625,-551.7578125,378.90625,-1000.0,435.546875
5.784437417984009,-1000.0,-1000.0,-162.109375,-859.86328125,-834.47265625
5.788343667984009,71.2890625,-424.31640625,-889.6484375,519.53125,681.640625
5.792249917984009,-884.27734375,962.890625,-812.5,-812.01171875,-747.55859375
5.796156167984009,812.5,869.62890625,-188.96484375,383.7890625,-1000.0
5.800062417984009,-549.31640625,-570.80078125,358.3984375,-1000.0,295.8984375
5.803968667984009,-1000.0,-1000.0,-128.41796875,-898.92578125,-843.75
5.805000066757202,-239.2578125,-657.2265625,-919.921875,538.0859375,718.26171875
5.808906316757202,-987.79296875,814.453125,-897.94921875,-833.984375,-655.2734375
5.812812566757202,896.97265625,962.40234375,-267.578125,627.44140625,-1000.0
5.816718816757202,-466.796875,-518.06640625,341.30859375,-854.00390625,-78.125
5.820625066757202,-1000.0,-1000.0,-24.90234375,-980.95703125,-935.546875
5.824531316757202,-558.10546875,-779.78515625,-862.3046875,510.25390625,820.3125
5.828437566757202,845.21484375,648.92578125,-900.87890625,-862.3046875,-560.546875
5.832343816757202,-958.49609375,-921.38671875,-334.9609375,762.20703125,-1000.0
5.836250066757202,-308.59375,-359.375,291.50390625,-678.7109375,-455.56640625
5.840156316757202,-1000.0,-1000.0,-27.83203125,-1000.0,936.5234375
5.844062566757202,-702.63671875,-841.30859375,-868.1640625,375.9765625,877.44140625
5.847968816757202,681.640625,531.73828125,-980.46875,-863.28125,-574.21875
5.849999904632568,-858.88671875,-844.23828125,-456.0546875,814.453125,-1000.0
5.853906154632568,-30.2734375,-116.2109375,285.64453125,-571.77734375,-619.140625
5.857812404632568,-1000.0,-1000.0,152.83203125,-1000.0,841.30859375
5.861718654632568,-846.6796875,-844.23828125,-780.76171875,203.61328125,941.89453125
5.865624904632568,513.671875,517.08984375,-1000.0,-856.93359375,-533.69140625
5.869531154632568,-810.546875,-813.96484375,-429.6875,799.31640625,-1000.0
5.873437404632568,332.51953125,224.12109375,357.421875,-542.96875,-741.69921875
5.877343654632568,-1000.0,-1000.0,219.23828125,-1000.0,691.89453125
5.881249904632568,-891.11328125,-908.203125,-695.3125,-187.98828125,-942.87109375
5.885156154632568,532.71484375,478.515625,-1000.0,-969.7265625,-382.8125
5.889062404632568,-831.0546875,-812.5,-443.84765625,889.6484375,-1000.0
5.892968654632568,608.88671875,524.90234375,239.2578125,-462.40234375,-824.70703125
5.9100000858306885,-883.30078125,-878.90625,225.5859375,-1000.0,568.359375
5.9139063358306885,-940.91796875,-1000.0,-607.91015625,-559.5703125,-867.1875
5.9178125858306885,560.546875,341.796875,-1000.0,849.12109375,-216.30859375
5.9217188358306885,-859.375,-829.1015625,-676.7578125,-966.30859375,-1000.0
5.9256250858306885,721.6796875,687.98828125,47.36328125,-328.61328125,-839.84375
5.9295313358306885,-727.5390625,-710.44921875,345.21484375,-1000.0,519.04296875
5.9334375858306885,-1000.0,-1000.0,-451.171875,-707.51953125,-821.77734375
5.9373438358306885,396.97265625,125.9765625,-996.09375,691.40625,96.6796875
5.9412500858306885,-865.72265625,-870.60546875,-732.421875,-871.58203125,-1000.0
5.9451563358306885,815.4296875,790.0390625,108.3984375,-125.48828125,-869.140625
5.9490625858306885,-575.1953125,-568.84765625,400.390625,-1000.0,508.30078125
5.9529688358306885,-1000.0,-1000.0,-435.05859375,-843.26171875,-812.98828125
5.943000078201294,229.4921875,-234.375,-968.75,517.08984375,441.40625
5.946906328201294,-857.91015625,-967.7734375,-807.12890625,-813.4765625,-922.8515625
5.950812578201294,804.6875,841.796875,-141.6015625,180.17578125,-1000.0
5.954718828201294,-552.24609375,-556.15234375,322.75390625,-1000.0,355.46875
5.958625078201294,-1000.0,-1000.0,-287.109375,-867.67578125,-831.54296875
5.962531328201294,-69.82421875,-562.01171875,-924.8046875,520.5078125,686.03515625
5.966437578201294,-917.96875,892.578125,-850.09765625,-816.89453125,-729.00390625
5.970343828201294,836.42578125,919.921875,-243.65234375,548.828125,-1000.0
5.974250078201294,-562.01171875,-576.66015625,377.9296875,-929.19921875,225.5859375
5.978156328201294,-1000.0,-1000.0,26.3671875,-927.24609375,-851.5625
5.982062578201294,-87.40234375,-429.6875,-843.26171875,554.6875,474.609375
5.985968828201294,-932.6171875,862.79296875,-914.55078125,-852.5390625,-706.54296875
6.0,915.52734375,966.796875,-283.69140625,698.2421875,-1000.0
