Timestamp,TP9,AF7,AF8,TP10,Right AUX
0.0,-1000.0,-1000.0,-546.875,-565.91796875,987.3046875
0.00390625,396.97265625,58.59375,-1000.0,861.328125,817.3828125
0.0078125,-889.16015625,-900.87890625,-796.875,-989.74609375,-621.58203125
0.01171875,898.4375,847.16796875,142.578125,-413.57421875,-1000.0
0.015625,-415.52734375,-506.8359375,472.65625,-1000.0,-393.5546875
0.01953125,-1000.0,-1000.0,-390.13671875,-479.4921875,949.21875
0.0234375,254.39453125,-187.5,-978.02734375,807.6171875,750.0
0.02734375,-905.76171875,-981.4453125,-872.55859375,-929.6875,-610.3515625
0.03125,895.01953125,905.76171875,91.30859375,-207.03125,-1000.0
0.03515625,-340.8203125,-414.55078125,716.30859375,-1000.0,-678.22265625
0.0390625,-1000.0,-1000.0,-183.59375,-767.578125,823.2421875
0.04296875,-164.0625,-562.98828125,-967.7734375,594.23828125,920.8984375
0.04699993133544922,978.02734375,826.171875,-921.875,-826.171875,-592.28515625
0.05090618133544922,-994.140625,-954.58984375,-134.765625,165.52734375,-1000.0
0.05481243133544922,-1.953125,-213.8671875,605.95703125,-1000.0,-831.0546875
0.05871868133544922,-1000.0,-1000.0,-116.69921875,-865.234375,613.28125
0.06262493133544922,-571.2890625,-722.65625,-944.3359375,519.04296875,-962.40234375
0.06653118133544922,829.1015625,683.59375,-988.76953125,-816.89453125,-466.796875
0.07043743133544922,-910.64453125,-873.53515625,-231.93359375,548.828125,-1000.0
0.07434368133544922,175.29296875,14.16015625,625.9765625,-929.19921875,-852.5390625
0.07824993133544922,-1000.0,-1000.0,118.65234375,-927.734375,551.7578125
0.08215618133544922,-732.91015625,-841.796875,-856.4453125,553.22265625,-888.671875
0.08606243133544922,714.35546875,557.12890625,-1000.0,-846.6796875,-321.2890625
0.08996868133544922,-878.90625,-833.49609375,-352.05078125,668.9453125,-1000.0
0.08999991416931152,377.9296875,269.53125,600.5859375,-807.12890625,-859.86328125
0.09390616416931152,-962.890625,-1000.0,135.7421875,-1000.0,493.65234375
0.09781241416931152,-869.140625,-890.625,-876.953125,482.421875,-830.078125
0.10171866416931152,608.88671875,536.1328125,-1000.0,-857.91015625,-50.78125
0.10562491416931152,-865.234375,-834.47265625,-458.49609375,760.25390625,-1000.0
0.10953116416931152,553.7109375,524.90234375,528.80859375,-674.8046875,-910.15625
0.11343741416931152,-836.42578125,-895.99609375,360.3515625,-1000.0,395.5078125
0.11734366416931152,-938.4765625,-937.98828125,-758.7890625,349.12109375,-799.31640625
0.12124991416931152,557.12890625,539.55078125,-1000.0,-862.79296875,445.80078125
0.12515616416931152,-864.74609375,-853.02734375,-563.96484375,814.94140625,-905.2734375
0.12906241416931152,736.81640625,704.58984375,443.84765625,-571.77734375,-1000.0
0.13296866416931152,-736.81640625,-746.58203125,446.2890625,-1000.0,279.78515625
0.1359999179840088,-969.23828125,-1000.0,-709.9609375,192.87109375,-803.7109375
0.1399061679840088,569.3359375,438.96484375,-1000.0,-859.375,509.765625
0.1438124179840088,-865.72265625,-858.3984375,-632.32421875,806.15234375,-824.21875
0.1477186679840088,765.13671875,775.87890625,441.40625,-549.8046875,-1000.0
0.1516249179840088,-698.2421875,-634.27734375,538.57421875,-1000.0,-57.12890625
0.1555311679840088,-937.01171875,-1000.0,-632.8125,-88.37890625,-903.3203125
0.1594374179840088,526.3671875,271.97265625,-1000.0,-935.546875,768.5546875
0.1633436679840088,-891.6015625,-860.83984375,-703.61328125,873.53515625,-611.328125
0.1672499179840088,828.61328125,808.59375,261.71875,-454.58984375,-1000.0
0.1711561679840088,-583.49609375,-547.8515625,567.3828125,-1000.0,-429.6875
0.1750624179840088,-1000.0,-1000.0,-541.015625,-560.546875,961.9140625
0.1789686679840088,318.84765625,-33.203125,-1000.0,852.05078125,855.95703125
0.18000006675720215,-895.01953125,-924.31640625,-808.59375,-973.14453125,-591.30859375
0.18390631675720215,913.57421875,856.93359375,106.93359375,-343.75,-1000.0
0.18781256675720215,-379.8828125,-483.88671875,648.92578125,-1000.0,-624.51171875
0.19171881675720215,-1000.0,-1000.0,-317.87109375,-712.890625,854.4921875
0.19562506675720215,87.890625,-391.6015625,-1000.0,700.1953125,906.25
0.19953131675720215,-921.875,944.3359375,-869.62890625,-884.765625,-586.9140625
0.20343756675720215,914.55078125,943.359375,38.57421875,-215.33203125,-1000.0
0.20734381675720215,-306.640625,-418.45703125,711.42578125,-1000.0,-676.26953125
0.21125006675720215,-1000.0,-1000.0,-153.80859375,-819.82421875,808.59375
0.21515631675720215,-215.8203125,-624.0234375,-960.9375,529.296875,939.94140625
0.21906256675720215,957.03125,783.203125,-955.56640625,-815.4296875,-566.89453125
0.22296881675720215,-987.3046875,-937.5,-169.921875,163.57421875,-1000.0
0.22499990463256836,71.77734375,-210.44921875,595.703125,-1000.0,-832.51953125
0.22890615463256836,-1000.0,-1000.0,-113.28125,-865.234375,603.515625
0.23281240463256836,-579.58984375,-762.20703125,-937.98828125,519.04296875,-946.77734375
0.23671865463256836,829.1015625,642.08984375,-1000.0,-816.89453125,-437.01171875
0.24062490463256836,-910.64453125,-864.2578125,-314.453125,548.828125,-1000.0
0.24453115463256836,286.62109375,4.8828125,600.09765625,-929.19921875,-846.6796875
0.24843740463256836,-1000.0,-1000.0,166.015625,-927.24609375,541.015625
0.25234365463256836,-763.671875,-854.00390625,-834.9609375,554.19921875,-865.234375
0.25624990463256836,702.1484375,536.62109375,-1000.0,-853.515625,-230.46875
0.26015615463256836,-873.53515625,-828.61328125,-399.90234375,701.66015625,-1000.0
0.26406240463256836,455.078125,295.41015625,591.796875,-776.3671875,-863.76953125
0.26796865463256836,-919.43359375,-1000.0,181.15234375,-1000.0,487.79296875
0.26999998092651367,-921.38671875,-893.5546875,-861.81640625,487.3046875,-820.80078125
0.27390623092651367,551.26953125,537.59765625,-1000.0,-871.09375,46.875
0.27781248092651367,-855.46875,-836.9140625,-506.34765625,808.10546875,-1000.0
0.28171873092651367,651.3671875,558.10546875,493.65234375,-599.12109375,-942.3828125
0.28562498092651367,-801.26953125,-870.60546875,370.60546875,-1000.0,377.9296875
0.28953123092651367,-954.58984375,-958.0078125,-745.1171875,304.19921875,-798.33984375
0.29343748092651367,563.96484375,521.484375,-1000.0,-857.421875,373.046875
0.29734373092651367,-866.2109375,-852.05078125,-555.6640625,805.17578125,-934.5703125
0.30124998092651367,736.81640625,712.40234375,462.40234375,-554.6875,-1000.0
0.30515623092651367,-742.1875,-728.515625,501.46484375,-1000.0,252.9296875
0.30906248092651367,-969.23828125,-1000.0,-666.9921875,10.25390625,-814.453125
0.31296873092651367,569.82421875,399.4140625,-1000.0,-895.99609375,596.19140625
0.3299999237060547,-871.58203125,-856.4453125,-669.921875,817.87109375,-797.36328125
0.3339061737060547,773.4375,780.76171875,421.875,-549.8046875,-1000.0
0.3378124237060547,-697.75390625,-618.65234375,605.46875,-1000.0,145.5078125
0.3417186737060547,-1000.0,-1000.0,-631.34765625,-290.0390625,-862.79296875
0.3456249237060547,497.0703125,214.84375,-1000.0,994.62890625,742.1875
0.3495311737060547,-887.6953125,-868.65234375,-682.12890625,905.76171875,-593.75
0.3534374237060547,858.88671875,815.91796875,312.98828125,-470.21484375,-1000.0
0.3573436737060547,-520.99609375,-534.1796875,598.6328125,-1000.0,-483.88671875
0.3612499237060547,-1000.0,-1000.0,-526.3671875,-557.6171875,934.5703125
0.3651561737060547,329.1015625,-109.86328125,-1000.0,845.703125,874.0234375
0.3690624237060547,-902.34375,-951.66015625,-814.94140625,-958.0078125,-583.49609375
0.3729686737060547,828.61328125,772.4609375,129.8828125,-308.59375,-1000.0
0.37599992752075195,-362.3046875,-509.27734375,688.4765625,-1000.0,-656.73828125
0.37990617752075195,-1000.0,-1000.0,-214.35546875,-703.125,832.51953125
0.38381242752075195,14.16015625,-456.54296875,-973.14453125,683.10546875,912.59765625
0.38771867752075195,-935.546875,915.0390625,-935.05859375,-854.4921875,-594.7265625
0.39162492752075195,936.03515625,967.7734375,-35.64453125,-45.8984375,-1000.0
0.39553117752075195,-274.4140625,-381.34765625,668.45703125,-1000.0,-763.671875
0.39943742752075195,-1000.0,-1000.0,-127.9296875,-749.51171875,708.49609375
0.40334367752075195,-357.421875,-651.3671875,-954.58984375,551.7578125,985.83984375
0.40724992752075195,908.203125,760.25390625,-953.125,-828.61328125,-528.80859375
0.41115617752075195,-965.8203125,-922.36328125,-36.62109375,271.484375,-1000.0
0.41506242752075195,64.453125,-173.828125,645.99609375,-1000.0,-838.8671875
0.41896867752075195,-1000.0,-1000.0,-127.44140625,-882.8125,584.47265625
0.42100000381469727,-645.99609375,-788.57421875,-944.3359375,540.0390625,-924.8046875
0.42490625381469727,792.48046875,612.79296875,-787.109375,-896.97265625,-392.578125
0.42881250381469727,-911.62109375,-854.00390625,-180.17578125,479.00390625,-1000.0
0.43271875381469727,209.9609375,43.9453125,539.55078125,-909.1796875,-843.75
0.43662500381469727,-1000.0,-1000.0,160.15625,-833.984375,534.66796875
0.44053125381469727,-781.73828125,-862.3046875,-837.890625,589.84375,-850.5859375
0.44443750381469727,683.10546875,530.76171875,-1000.0,-868.65234375,-167.96875
0.44834375381469727,-873.53515625,-825.1953125,-425.78125,706.54296875,-1000.0
0.45225000381469727,370.1171875,318.84765625,583.0078125,-773.4375,-886.23046875
0.45615625381469727,-937.5,-1000.0,188.96484375,-1000.0,460.44921875
0.46006250381469727,-907.2265625,-895.01953125,-868.1640625,458.49609375,-814.453125
0.46396875381469727,543.45703125,537.59765625,-1000.0,-872.0703125,68.84765625
0.4649999141693115,-857.421875,-836.9140625,-500.48828125,820.3125,-1000.0
0.4689061641693115,706.54296875,592.28515625,485.83984375,-584.9609375,-958.49609375
0.4728124141693115,-763.18359375,-850.5859375,375.9765625,-1000.0,341.30859375
0.4767186641693115,-964.35546875,-975.5859375,-743.1640625,304.6875,-796.38671875
0.4806249141693115,567.87109375,504.39453125,-1000.0,-856.93359375,462.40234375
0.4845311641693115,-871.09375,-852.5390625,-569.82421875,804.6875,-888.18359375
0.4884374141693115,761.23046875,721.6796875,464.35546875,-554.19921875,-1000.0
0.4923436641693115,-721.6796875,-713.8671875,520.99609375,-1000.0,207.03125
0.4962499141693115,-975.09765625,-1000.0,-606.4453125,3.90625,-820.80078125
0.5001561641693115,575.1953125,368.65234375,-1000.0,-896.484375,605.95703125
0.5040624141693115,-878.90625,-856.4453125,-698.73046875,813.96484375,-744.140625
0.5079686641693115,798.33984375,787.59765625,350.5859375,-544.43359375,-1000.0
0.5109999179840088,-636.71875,-599.609375,543.9453125,-1000.0,-208.0078125
0.5149061679840088,-1000.0,-1000.0,-609.375,-383.7890625,-949.21875
0.5188124179840088,406.25,156.25,-1000.0,961.9140625,799.8046875
0.5227186679840088,-880.859375,-874.0234375,-725.09765625,918.9453125,-606.4453125
0.5266249179840088,864.2578125,814.453125,205.078125,-479.4921875,-1000.0
0.5305311679840088,-499.51171875,-536.1328125,560.546875,-1000.0,-473.6328125
0.5344374179840088,-1000.0,-1000.0,-380.859375,-640.625,938.96484375
0.5383436679840088,247.55859375,-197.265625,-1000.0,782.2265625,872.0703125
0.5422499179840088,-885.25390625,-969.23828125,-861.328125,-939.453125,-583.0078125
0.5461561679840088,880.37109375,871.09375,39.55078125,-317.3828125,-1000.0
0.5500624179840088,-403.80859375,-496.58203125,649.90234375,-1000.0,-661.1328125
0.5539686679840088,-1000.0,-1000.0,-106.93359375,-743.1640625,829.1015625
0.5550000667572021,-19.53125,-515.625,-931.640625,637.6953125,914.0625
0.5589063167572021,-941.40625,880.859375,-962.890625,-848.6328125,-596.19140625
0.5628125667572021,919.921875,978.02734375,-67.87109375,-32.2265625,-1000.0
0.5667188167572021,-319.3359375,-399.4140625,628.90625,-1000.0,-779.296875
0.5706250667572021,-1000.0,-1000.0,-171.38671875,-845.21484375,680.6640625
0.5745313167572021,-361.328125,-685.546875,-968.26171875,512.6953125,-990.234375
0.5784375667572021,912.59765625,730.46875,-955.078125,-809.08203125,-493.1640625
0.5823438167572021,-969.7265625,-915.52734375,-67.87109375,359.375,-1000.0
0.5862500667572021,-12.6953125,-214.35546875,648.92578125,-1000.0,-840.33203125
0.5901563167572021,-1000.0,-1000.0,-39.55078125,-895.01953125,572.75390625
0.5940625667572021,-654.78515625,-803.7109375,-896.97265625,535.64453125,-903.3203125
0.5979688167572021,765.13671875,583.984375,-1000.0,-830.078125,-347.16796875
0.5999999046325684,-895.99609375,-845.21484375,-354.4921875,605.46875,-1000.0
0.6039061546325684,231.4453125,34.1796875,549.8046875,-885.7421875,-844.23828125
0.6078124046325684,-1000.0,-1000.0,123.53515625,-939.94140625,534.66796875
0.6117186546325684,-836.9140625,-861.328125,-862.79296875,560.05859375,-849.12109375
0.6156249046325684,633.7890625,524.4140625,-1000.0,-855.95703125,-144.53125
0.6195311546325684,-865.72265625,-822.265625,-391.6015625,711.42578125,-1000.0
0.6234374046325684,324.70703125,336.42578125,598.6328125,-739.2578125,-863.76953125
0.6273436546325684,-945.3125,-999.0234375,266.11328125,-1000.0,491.69921875
0.6312499046325684,-901.85546875,-898.4375,-826.171875,406.73828125,-812.5
0.6351561546325684,538.0859375,534.66796875,-1000.0,-863.28125,136.23046875
0.6390624046325684,-847.16796875,-835.9375,-377.9296875,618.65234375,-1000.0
0.6429686546325684,656.73828125,600.09765625,548.828125,-648.92578125,-977.05078125
0.6489999294281006,-803.22265625,-842.28515625,386.23046875,-1000.0,328.61328125
0.6529061794281006,-951.66015625,-995.1171875,-717.28515625,204.1015625,-795.8984375
0.6568124294281006,559.08203125,475.09765625,-1000.0,-852.05078125,449.21875
0.6607186794281006,-854.4921875,-850.09765625,-619.140625,804.19921875,-890.625
0.6646249294281006,708.0078125,728.515625,413.0859375,-551.7578125,-1000.0
0.6685311794281006,-794.921875,-699.21875,539.55078125,-1000.0,182.6171875
0.6724374294281006,-965.8203125,-1000.0,-607.91015625,-85.44921875,-838.8671875
0.6763436794281006,573.2421875,329.1015625,-1000.0,-921.38671875,690.91796875
0.6802499294281006,-885.7421875,-856.93359375,-702.1484375,826.171875,-669.921875
0.6841561794281006,817.87109375,793.45703125,319.82421875,-550.78125,-1000.0
0.6880624294281006,-610.83984375,-582.51953125,560.546875,-1000.0,-246.09375
0.6919686794281006,-1000.0,-1000.0,-565.4296875,-377.44140625,-967.7734375
0.7059998512268066,407.71484375,76.66015625,-1000.0,946.77734375,817.3828125
0.7099061012268066,-881.8359375,-890.13671875,-700.68359375,959.47265625,-591.30859375
0.7138123512268066,869.62890625,821.2890625,348.14453125,-402.83203125,-1000.0
0.7177186012268066,-482.91015625,-533.69140625,618.1640625,-1000.0,-549.8046875
0.7216248512268066,-1000.0,-1000.0,-452.1484375,-640.625,899.90234375
0.7255311012268066,218.75,-278.3203125,-1000.0,780.76171875,891.6015625
0.7294373512268066,-886.23046875,-998.046875,-842.28515625,-931.15234375,-581.54296875
0.7333436012268066,877.9296875,883.30078125,24.4140625,-295.41015625,-1000.0
0.7372498512268066,-376.953125,-499.0234375,646.484375,-1000.0,-682.12890625
0.7411561012268066,-1000.0,-1000.0,-87.890625,-774.4140625,812.01171875
0.7450623512268066,-179.6875,-566.89453125,-923.33984375,606.93359375,921.875
0.7489686012268066,-988.28125,852.05078125,-969.23828125,-841.796875,-593.75
0.75,934.08203125,991.2109375,-101.07421875,-33.69140625,-1000.0
0.75390625,-274.90234375,-402.83203125,627.44140625,-1000.0,-789.55078125
0.7578125,-1000.0,-1000.0,-109.86328125,-845.21484375,655.2734375
0.76171875,-545.41015625,-711.9140625,-939.94140625,512.20703125,-961.42578125
0.765625,846.19140625,698.73046875,-979.4921875,-809.08203125,-442.87109375
0.76953125,-946.2890625,-899.90234375,-159.1796875,358.88671875,-1000.0
0.7734375,-82.03125,-185.546875,646.484375,-1000.0,-824.21875
0.77734375,-1000.0,-1000.0,60.546875,-894.53125,556.640625
0.78125,-685.05859375,-818.359375,-880.859375,536.1328125,-858.3984375
0.78515625,729.4921875,561.5234375,-1000.0,-834.9609375,-175.78125
0.7890625,-878.90625,-835.44921875,-334.47265625,631.8359375,-1000.0
0.79296875,155.76171875,95.21484375,530.2734375,-865.234375,-856.4453125
0.7950000762939453,-1000.0,-1000.0,138.18359375,-947.265625,541.015625
0.7989063262939453,-816.40625,-866.69921875,-850.09765625,563.4765625,-844.23828125
0.8028125762939453,617.1875,525.87890625,-1000.0,-864.2578125,-109.86328125
0.8067188262939453,-845.21484375,-823.2421875,-459.9609375,758.30078125,-1000.0
0.8106250762939453,390.625,402.34375,536.1328125,-680.17578125,-888.18359375
0.8145313262939453,-941.40625,-969.23828125,294.921875,-985.83984375,442.87109375
0.8184375762939453,-810.05859375,-911.62109375,-777.83203125,433.10546875,-802.734375
0.8223438262939453,580.56640625,536.62109375,-1000.0,-880.37109375,246.09375
0.8262500762939453,-874.51171875,-842.7734375,-427.24609375,821.77734375,-1000.0
0.8301563262939453,705.56640625,642.578125,532.2265625,-573.73046875,-999.51171875
0.8340625762939453,-764.16015625,-804.6875,392.08984375,-1000.0,319.3359375
0.8379688262939453,-960.44921875,-1000.0,-698.2421875,205.078125,-799.31640625
0.8399999141693115,561.03515625,459.9609375,-1000.0,-856.4453125,476.5625
0.8439061641693115,-853.02734375,-854.00390625,-639.16015625,799.31640625,-864.74609375
0.8478124141693115,701.66015625,750.48828125,398.4375,-542.96875,-1000.0
0.8517186641693115,-777.83203125,-667.96875,524.90234375,-1000.0,113.28125
0.8556249141693115,-1000.0,-1000.0,-605.46875,-194.82421875,-858.88671875
0.8595311641693115,494.140625,299.31640625,-1000.0,-951.171875,736.81640625
0.8634374141693115,-877.44140625,-856.4453125,-678.7109375,835.9375,-670.8984375
0.8673436641693115,823.2421875,797.8515625,359.375,-553.22265625,-1000.0
0.8712499141693115,-591.796875,-571.2890625,691.40625,-1000.0,0.0
0.8751561641693115,-1000.0,-1000.0,-343.26171875,-510.7421875,-903.3203125
0.8790624141693115,357.421875,29.78515625,-1000.0,884.765625,775.390625
0.8829686641693115,-882.32421875,-903.3203125,-783.69140625,991.2109375,-573.73046875
0.8849999904632568,876.953125,834.9609375,182.12890625,-397.4609375,-1000.0
0.8889062404632568,-474.609375,-515.625,614.74609375,-1000.0,-593.26171875
0.8928124904632568,-1000.0,-1000.0,-368.65234375,-649.90234375,875.9765625
0.8967187404632568,215.33203125,-325.1953125,-1000.0,755.37109375,893.5546875
0.9006249904632568,-881.34765625,977.5390625,-852.05078125,-901.85546875,-588.37890625
0.9045312404632568,864.74609375,911.1328125,70.3125,-221.19140625,-1000.0
0.9084374904632568,-400.390625,-460.9375,687.5,-1000.0,-703.61328125
0.9123437404632568,-1000.0,-1000.0,-89.84375,-770.01953125,788.0859375
0.9162499904632568,-168.45703125,-589.35546875,-922.8515625,597.16796875,933.10546875
0.9201562404632568,989.2578125,822.265625,-986.81640625,-829.1015625,-580.078125
0.9240624904632568,976.07421875,-972.65625,-136.23046875,127.9296875,-1000.0
0.9279687404632568,-115.72265625,-307.6171875,671.875,-1000.0,-740.72265625
0.9309999942779541,-1000.0,-1000.0,-73.73046875,-865.234375,717.28515625
0.9349062442779541,-568.84765625,-729.00390625,-936.5234375,520.99609375,-986.81640625
0.9388124942779541,837.890625,679.19921875,-992.1875,-813.96484375,-468.75
0.9427187442779541,-938.96484375,-882.32421875,-268.5546875,433.59375,-1000.0
0.9466249942779541,62.5,-95.703125,593.26171875,-979.4921875,-833.984375
0.9505312442779541,-1000.0,-1000.0,52.734375,-907.71484375,533.203125
0.9544374942779541,-748.046875,-837.40234375,-890.625,541.9921875,-847.65625
0.9583437442779541,702.63671875,547.36328125,-1000.0,-834.9609375,-122.55859375
0.9622499942779541,-880.37109375,-831.0546875,-372.55859375,625.9765625,-1000.0
0.9661562442779541,222.16796875,178.7109375,515.13671875,-850.09765625,-867.67578125
0.9700624942779541,-1000.0,-1000.0,231.93359375,-994.62890625,526.85546875
0.9739687442779541,-877.44140625,-877.44140625,-791.50390625,489.74609375,-835.44921875
0.9760000705718994,556.15234375,529.78515625,-1000.0,-858.88671875,-55.6640625
0.9799063205718994,-844.23828125,-827.63671875,-445.80078125,760.7421875,-1000.0
0.9838125705718994,479.00390625,467.7734375,521.484375,-676.26953125,-911.1328125
0.9877188205718994,-897.94921875,-931.15234375,320.80078125,-1000.0,401.85546875
0.9916250705718994,-923.33984375,-930.17578125,-760.7421875,357.421875,-796.875
0.9955313205718994,551.7578125,530.76171875,-1000.0,-862.3046875,367.1875
0.9994375705718994,-862.3046875,-846.6796875,-455.56640625,815.4296875,-945.80078125
1.0033438205718994,726.07421875,672.36328125,543.9453125,-572.75390625,-1000.0
1.0072500705718994,-747.0703125,-771.97265625,415.52734375,-1000.0,283.69140625
1.0111563205718994,-966.796875,-1000.0,-701.171875,205.078125,-803.22265625
1.0150625705718994,566.89453125,430.6640625,-1000.0,-856.4453125,524.4140625
1.0189688205718994,-863.76953125,-853.515625,-657.2265625,799.31640625,-827.1484375
1.0199999809265137,742.1875,760.25390625,374.0234375,-542.96875,-1000.0
1.0239062309265137,-731.93359375,-650.87890625,521.484375,-1000.0,34.66796875
1.0278124809265137,-1000.0,-1000.0,-616.69921875,-190.4296875,-880.37109375
1.0317187309265137,490.234375,266.11328125,-1000.0,-963.37890625,760.7421875
1.0356249809265137,-875.0,-857.91015625,-707.03125,871.09375,-649.90234375
1.0395312309265137,819.3359375,799.8046875,345.703125,-491.69921875,-1000.0
1.0434374809265137,-583.984375,-562.01171875,657.71484375,-1000.0,-56.15234375
1.0473437309265137,-1000.0,-1000.0,-455.078125,-564.453125,-918.45703125
1.0512499809265137,316.40625,-32.71484375,-1000.0,860.3515625,791.9921875
1.0551562309265137,-887.6953125,-917.96875,-787.109375,-994.140625,-566.89453125
1.0590624809265137,892.578125,840.8203125,148.4375,-392.578125,-1000.0
1.0629687309265137,-409.1796875,-513.18359375,632.8125,-1000.0,-624.51171875
1.0799999237060547,-1000.0,-1000.0,-302.734375,-711.9140625,853.02734375
1.0839061737060547,33.69140625,-396.97265625,-984.86328125,699.21875,910.64453125
1.0878124237060547,-908.69140625,949.21875,-896.484375,-874.51171875,-582.51953125
1.0917186737060547,873.046875,935.05859375,-41.50390625,-241.69921875,-1000.0
1.0956249237060547,-445.3125,-470.703125,639.16015625,-1000.0,-725.5859375
1.0995311737060547,-1000.0,-1000.0,-208.0078125,-521.484375,753.90625
1.1034374237060547,-52.24609375,-428.7109375,-970.21484375,661.62109375,756.8359375
1.1073436737060547,-973.6328125,870.1171875,-961.42578125,-868.1640625,-641.11328125
1.1112499237060547,955.56640625,-990.234375,-186.5234375,187.5,-1000.0
1.1151561737060547,-151.85546875,-282.2265625,649.90234375,-1000.0,-780.2734375
1.1190624237060547,-1000.0,-1000.0,-53.22265625,-865.234375,689.94140625
1.1229686737060547,-566.40625,-750.48828125,-931.15234375,519.04296875,-966.30859375
1.125,834.9609375,650.390625,-1000.0,-816.89453125,-442.3828125
1.12890625,-927.24609375,-870.1171875,-301.7578125,548.828125,-1000.0
1.1328125,6.34765625,-79.58984375,564.453125,-929.19921875,-843.75
1.13671875,-1000.0,-1000.0,-1.46484375,-927.24609375,535.15625
1.140625,-734.375,-844.23828125,-908.69140625,554.19921875,-856.4453125
1.14453125,695.3125,535.64453125,-1000.0,-851.07421875,-191.40625
1.1484375,-873.046875,-825.68359375,-379.39453125,688.96484375,-1000.0
1.15234375,228.515625,201.66015625,561.5234375,-787.59765625,-854.4921875
1.15625,-1000.0,-1000.0,290.0390625,-1000.0,507.32421875
1.16015625,-891.6015625,-878.90625,-748.53515625,483.88671875,-819.3359375
1.1640625,537.109375,529.78515625,-1000.0,-862.79296875,59.5703125
1.16796875,-835.9375,-825.68359375,-511.23046875,779.78515625,-1000.0
1.1700000762939453,453.125,490.234375,496.09375,-636.23046875,-944.82421875
1.1739063262939453,-919.43359375,-923.828125,339.84375,-1000.0,383.7890625
1.1778125762939453,-916.9921875,-940.91796875,-763.18359375,303.7109375,-797.8515625
1.1817188262939453,546.875,519.53125,-1000.0,-857.91015625,305.6640625
1.1856250762939453,-853.02734375,-844.7265625,-537.59765625,806.640625,-972.16796875
1.1895313262939453,690.91796875,681.15234375,450.68359375,-557.6171875,-1000.0
1.1934375762939453,-787.59765625,-763.18359375,467.7734375,-1000.0,285.15625
1.1973438262939453,-958.984375,-1000.0,-656.73828125,34.66796875,-830.078125
1.2012500762939453,566.89453125,400.390625,-1000.0,-891.11328125,704.58984375
1.2051563262939453,-870.60546875,-854.4921875,-672.36328125,815.4296875,-677.24609375
1.2090625762939453,770.01953125,771.484375,375.48828125,-549.31640625,-1000.0
1.2129688262939453,-696.2890625,-629.8828125,553.22265625,-1000.0,8.30078125
1.2149999141693115,-1000.0,-1000.0,-593.75,-273.92578125,-888.18359375
1.2189061641693115,472.65625,217.28515625,-1000.0,-999.51171875,747.55859375
1.2228124141693115,-873.53515625,-864.2578125,-752.9296875,903.3203125,-621.09375
1.2267186641693115,819.3359375,803.22265625,222.16796875,-469.23828125,-1000.0
1.2306249141693115,-584.47265625,-554.6875,621.58203125,-1000.0,-444.82421875
1.2345311641693115,-1000.0,-1000.0,-406.25,-557.6171875,952.1484375
1.2384374141693115,311.03515625,-107.421875,-1000.0,845.703125,866.69921875
1.2423436641693115,-873.53515625,-936.5234375,-787.109375,-958.0078125,-581.0546875
1.2462499141693115,847.16796875,844.23828125,242.67578125,-308.59375,-1000.0
1.2501561641693115,-473.14453125,-524.4140625,662.109375,-1000.0,-657.71484375
1.2540624141693115,-1000.0,-1000.0,-304.19921875,-706.54296875,832.03125
1.2579686641693115,12.20703125,-450.68359375,-983.88671875,688.96484375,913.0859375
1.2609999179840088,-915.52734375,922.36328125,-900.87890625,-867.1875,-594.23828125
1.2649061679840088,860.3515625,942.87109375,-33.203125,-93.26171875,-1000.0
1.2688124179840088,-419.43359375,-450.68359375,637.20703125,-1000.0,-758.30078125
1.2727186679840088,-1000.0,-1000.0,-71.2890625,-846.19140625,714.84375
1.2766249179840088,-373.53515625,-651.85546875,-907.71484375,518.5546875,985.3515625
1.2805311679840088,934.5703125,769.04296875,-986.81640625,-813.4765625,-527.83203125
1.2844374179840088,986.81640625,-939.94140625,-150.87890625,198.2421875,-1000.0
1.2883436679840088,-239.2578125,-278.3203125,640.13671875,-1000.0,-832.03125
1.2922499179840088,-1000.0,-1000.0,-51.7578125,-870.60546875,595.21484375
1.2961561679840088,-633.7890625,-780.2734375,-925.29296875,521.97265625,-930.17578125
1.3000624179840088,773.4375,614.2578125,-1000.0,-817.3828125,-401.3671875
1.3039686679840088,-904.296875,-858.3984375,-208.49609375,548.828125,-1000.0
1.305999994277954,-20.5078125,-49.8046875,613.28125,-929.19921875,-844.7265625
1.309906244277954,-1000.0,-1000.0,22.94921875,-927.24609375,536.62109375
1.313812494277954,-764.16015625,-850.09765625,-884.765625,554.19921875,-855.95703125
1.317718744277954,650.390625,526.3671875,-1000.0,-853.02734375,-182.6171875
1.321624994277954,-854.98046875,-820.3125,-421.875,701.171875,-1000.0
1.325531244277954,223.14453125,256.8359375,539.0625,-776.3671875,-863.76953125
1.329437494277954,-1000.0,-1000.0,305.17578125,-1000.0,497.55859375
1.333343744277954,-882.8125,-884.765625,-736.81640625,485.83984375,-819.82421875
1.337249994277954,530.2734375,532.2265625,-1000.0,-874.51171875,48.33984375
1.341156244277954,-834.47265625,-828.61328125,-520.99609375,819.82421875,-1000.0
1.345062494277954,555.6640625,536.1328125,494.140625,-583.49609375,-951.171875
1.348968744277954,-880.37109375,-894.53125,368.65234375,-1000.0,358.88671875
1.3499999046325684,-933.10546875,-963.37890625,-747.0703125,304.6875,-795.41015625
1.3539061546325684,552.24609375,501.46484375,-1000.0,-856.93359375,371.58203125
1.3578124046325684,-844.23828125,-843.26171875,-562.98828125,810.05859375,-928.7109375
1.3617186546325684,669.921875,701.171875,444.3359375,-560.546875,-1000.0
1.3656249046325684,-813.4765625,-729.4921875,476.5625,-1000.0,203.61328125
1.3695311546325684,-856.4453125,-978.515625,-648.4375,103.515625,-847.16796875
1.3734374046325684,601.07421875,408.203125,-1000.0,-862.79296875,743.65234375
1.3773436546325684,-885.7421875,-871.58203125,-662.59765625,797.36328125,-629.8828125
1.3812499046325684,771.97265625,790.52734375,344.7265625,-536.1328125,-1000.0
1.3851561546325684,-684.5703125,-611.328125,535.64453125,-1000.0,-97.16796875
1.3890624046325684,-1000.0,-1000.0,-540.52734375,-383.7890625,-919.43359375
1.3929686546325684,401.85546875,170.41015625,-1000.0,962.40234375,773.92578125
1.3959999084472656,-873.046875,-871.09375,-783.69140625,919.43359375,-610.3515625
1.3999061584472656,838.37890625,810.546875,192.3828125,-479.00390625,-1000.0
1.4038124084472656,-541.015625,-542.48046875,600.5859375,-1000.0,-492.67578125
1.4077186584472656,-1000.0,-1000.0,-442.3828125,-623.53515625,929.19921875
1.4116249084472656,247.0703125,-173.828125,-1000.0,795.41015625,877.44140625
1.4155311584472656,-877.44140625,-960.9375,-777.34375,-943.359375,-581.54296875
1.4194374084472656,859.375,865.234375,221.19140625,-314.453125,-1000.0
1.4233436584472656,-452.63671875,-500.9765625,685.05859375,-1000.0,-651.3671875
1.4272499084472656,-1000.0,-1000.0,-187.5,-722.65625,837.40234375
1.4311561584472656,-11.71875,-498.046875,-941.89453125,660.15625,911.62109375
1.4350624084472656,-935.546875,891.11328125,-946.77734375,-853.515625,-595.21484375
1.4389686584472656,904.78515625,972.16796875,-110.83984375,-31.25,-1000.0
1.4549999237060547,-359.375,-403.80859375,615.234375,-1000.0,-779.296875
1.4589061737060547,-1000.0,-1000.0,-69.3359375,-845.21484375,696.2890625
1.4628124237060547,-360.3515625,-671.38671875,-910.15625,512.6953125,979.98046875
1.4667186737060547,914.0625,744.140625,-996.09375,-809.08203125,-544.43359375
1.4706249237060547,-979.4921875,-919.43359375,-172.36328125,359.375,-1000.0
1.4745311737060547,-33.69140625,-215.33203125,644.04296875,-1000.0,-825.68359375
1.4784374237060547,-1000.0,-1000.0,36.62109375,-895.01953125,593.75
1.4823436737060547,-657.71484375,-796.38671875,-893.06640625,536.1328125,-917.48046875
1.4862499237060547,769.53125,592.7734375,-1000.0,-831.54296875,-372.0703125
1.4901561737060547,-903.80859375,-847.16796875,-216.30859375,614.2578125,-1000.0
1.4940624237060547,179.6875,36.62109375,634.765625,-879.39453125,-840.8203125
1.4979686737060547,-1000.0,-1000.0,42.96875,-941.89453125,529.78515625
1.5,-830.56640625,-861.81640625,-882.32421875,560.05859375,-841.796875
1.50390625,628.90625,524.4140625,-1000.0,-851.07421875,-115.72265625
1.5078125,-861.328125,-822.75390625,-442.3828125,704.58984375,-1000.0
1.51171875,304.19921875,342.7734375,514.16015625,-738.76953125,-890.13671875
1.515625,-963.8671875,-996.09375,240.72265625,-971.6796875,455.078125
1.51953125,-896.97265625,-897.94921875,-781.25,434.08203125,-811.03515625
1.5234375,536.1328125,538.57421875,-1000.0,-882.32421875,144.04296875
1.52734375,-844.23828125,-837.40234375,-514.6484375,825.1953125,-1000.0
1.53125,647.94921875,600.5859375,526.85546875,-581.0546875,-928.22265625
1.53515625,-814.453125,-844.23828125,513.18359375,-1000.0,426.7578125
1.5390625,-949.70703125,-987.3046875,-683.10546875,252.9296875,-801.26953125
1.54296875,558.59375,488.28125,-1000.0,-857.421875,421.875
1.5450000762939453,-854.4921875,-852.5390625,-570.3125,807.6171875,-893.5546875
1.5489063262939453,708.0078125,729.98046875,438.96484375,-557.12890625,-1000.0
1.5528125762939453,-795.41015625,-701.171875,465.33203125,-1000.0,139.6484375
1.5567188262939453,-964.35546875,-1000.0,-654.78515625,3.90625,-835.44921875
1.5606250762939453,575.1953125,345.703125,-1000.0,-896.97265625,657.2265625
1.5645313262939453,-884.765625,-857.421875,-665.52734375,813.4765625,-714.35546875
1.5684375762939453,812.98828125,794.921875,374.0234375,-544.43359375,-1000.0
1.5723438262939453,-617.1875,-584.9609375,562.5,-1000.0,-215.8203125
1.5762500762939453,-1000.0,-1000.0,-500.9765625,-375.9765625,-956.54296875
1.5801563262939453,407.71484375,110.83984375,-1000.0,944.3359375,794.921875
1.5840625762939453,-882.32421875,-882.8125,-811.5234375,968.26171875,-601.07421875
1.5879688262939453,869.62890625,819.3359375,183.10546875,-386.23046875,-1000.0
1.6059999465942383,-482.91015625,-533.69140625,632.8125,-1000.0,-545.8984375
1.6099061965942383,-1000.0,-1000.0,-431.640625,-636.71875,903.3203125
1.6138124465942383,219.7265625,-229.98046875,-1000.0,773.4375,888.18359375
1.6177186965942383,-889.16015625,-982.91015625,-818.359375,-914.0625,-583.984375
1.6216249465942383,886.23046875,884.27734375,104.4921875,-245.1171875,-1000.0
1.6255311965942383,-365.72265625,-481.4453125,662.59765625,-1000.0,-672.36328125
1.6294374465942383,-1000.0,-1000.0,-162.59765625,-774.4140625,804.6875
1.6333436965942383,-148.92578125,-539.0625,-943.359375,604.4921875,956.0546875
1.6372499465942383,-985.83984375,861.328125,-910.15625,-837.890625,-535.15625
1.6411561965942383,943.359375,-1000.0,-111.328125,24.90234375,-1000.0
1.6450624465942383,-229.00390625,-354.4921875,606.4453125,-1000.0,-803.7109375
1.6489686965942383,-1000.0,-1000.0,-88.37890625,-854.00390625,664.0625
1.6349999904632568,-461.9140625,-696.77734375,-924.31640625,516.6015625,999.51171875
1.6389062404632568,884.27734375,713.8671875,-1000.0,-805.17578125,-523.92578125
1.6428124904632568,-959.9609375,-899.90234375,-254.8828125,353.02734375,-1000.0
1.6467187404632568,-27.34375,-148.4375,591.796875,-1000.0,-837.40234375
1.6506249904632568,-1000.0,-1000.0,-70.80078125,-794.921875,555.6640625
1.6545312404632568,-655.2734375,-818.359375,-932.12890625,569.82421875,-878.41796875
1.6584374904632568,763.18359375,570.80078125,-1000.0,-851.07421875,-270.01953125
1.6623437404632568,-888.18359375,-838.37890625,-304.6875,639.6484375,-1000.0
1.6662499904632568,198.73046875,92.7734375,571.2890625,-868.65234375,-834.9609375
1.6701562404632568,-1000.0,-1000.0,104.98046875,-945.80078125,515.625
1.6740624904632568,-824.21875,-867.67578125,-868.1640625,565.91796875,-820.3125
1.6779687404632568,623.046875,526.3671875,-1000.0,-869.62890625,101.07421875
1.6800000667572021,-855.95703125,-822.75390625,-459.47265625,764.6484375,-1000.0
1.6839063167572021,392.578125,380.859375,491.2109375,-681.640625,-926.26953125
1.6878125667572021,-935.546875,-980.46875,298.828125,-1000.0,451.171875
1.6917188167572021,-910.64453125,-906.25,-766.6015625,399.4140625,-811.5234375
1.6956250667572021,544.43359375,536.62109375,-1000.0,-863.76953125,193.84765625
1.6995313167572021,-851.5625,-838.37890625,-528.80859375,813.96484375,-1000.0
1.7034375667572021,664.0625,615.234375,506.8359375,-570.80078125,-938.4765625
1.7073438167572021,-791.015625,-828.125,522.4609375,-1000.0,423.33984375
1.7112500667572021,-953.125,-1000.0,-669.43359375,205.078125,-804.19921875
1.7151563167572021,559.08203125,458.49609375,-1000.0,-856.93359375,469.7265625
1.7190625667572021,-852.5390625,-850.09765625,-607.91015625,799.31640625,-861.328125
1.7229688167572021,702.1484375,734.86328125,403.3203125,-542.96875,-1000.0
1.7260000705718994,-779.296875,-685.05859375,488.76953125,-1000.0,104.98046875
1.7299063205718994,-1000.0,-1000.0,-642.08984375,-192.87109375,-853.515625
1.7338125705718994,500.48828125,298.828125,-1000.0,-957.03125,702.63671875
1.7377188205718994,-877.9296875,-855.95703125,-726.5625,853.515625,-682.12890625
1.7416250705718994,822.75390625,793.45703125,254.39453125,-523.92578125,-1000.0
1.7455313205718994,-591.796875,-576.171875,603.02734375,-1000.0,-161.62109375
1.7494375705718994,-1000.0,-1000.0,-412.109375,-529.296875,-943.359375
1.7533438205718994,354.4921875,24.4140625,-1000.0,877.44140625,811.03515625
1.7572500705718994,-870.1171875,-898.4375,-833.984375,994.62890625,-584.9609375
1.7611563205718994,840.33203125,818.84765625,145.99609375,-400.390625,-1000.0
1.7650625705718994,-530.2734375,-541.9921875,652.83203125,-1000.0,-474.609375
1.7689688205718994,-1000.0,-1000.0,-385.25390625,-676.7578125,929.19921875
1.7699999809265137,188.4765625,-336.9140625,-1000.0,730.46875,872.55859375
1.7739062309265137,-863.76953125,984.375,-860.3515625,-895.5078125,-580.078125
1.7778124809265137,814.94140625,884.765625,19.53125,-223.6328125,-1000.0
1.7817187309265137,-530.2734375,-517.578125,636.71875,-1000.0,-697.265625
1.7856249809265137,-1000.0,-1000.0,-198.73046875,-780.2734375,777.83203125
1.7895312309265137,-83.49609375,-592.7734375,-964.35546875,590.8203125,969.7265625
1.7934374809265137,-937.01171875,832.03125,-870.1171875,-826.171875,-523.92578125
1.7973437309265137,773.4375,895.01953125,0.0,65.4296875,-1000.0
1.8012499809265137,-488.76953125,-458.0078125,658.203125,-1000.0,-796.875
1.8051562309265137,-1000.0,-1000.0,-59.08203125,-849.609375,653.3203125
1.8090624809265137,-565.4296875,-734.375,-907.71484375,511.23046875,-967.7734375
1.8129687309265137,847.65625,689.453125,-1000.0,-813.96484375,-455.078125
1.8299999237060547,-958.0078125,-899.4140625,-248.53515625,541.9921875,-1000.0
1.8339061737060547,-304.19921875,-230.95703125,617.1875,-932.12890625,-805.17578125
1.8378124237060547,-1000.0,-1000.0,168.45703125,-926.26953125,602.05078125
1.8417186737060547,-703.61328125,-823.73046875,-839.84375,552.24609375,-890.13671875
1.8456249237060547,683.59375,550.29296875,-1000.0,-846.6796875,-283.69140625
1.8495311737060547,-864.2578125,-833.49609375,-307.12890625,668.45703125,-1000.0
1.8534374237060547,-23.92578125,40.52734375,591.796875,-806.640625,-837.40234375
1.8573436737060547,-1000.0,-1000.0,144.04296875,-1000.0,501.953125
1.8612499237060547,-840.33203125,-858.3984375,-849.609375,479.98046875,-815.4296875
1.8651561737060547,534.1796875,520.5078125,-1000.0,-856.4453125,142.08984375
1.8690624237060547,-815.4296875,-817.87109375,-489.74609375,757.32421875,-1000.0
1.8729686737060547,272.4609375,375.0,480.95703125,-668.45703125,-933.10546875
1.875,-1000.0,-988.28125,338.37890625,-1000.0,435.05859375
1.87890625,-882.32421875,-910.64453125,-739.2578125,313.96484375,-805.6640625
1.8828125,527.34375,524.90234375,-1000.0,-859.375,300.29296875
1.88671875,-822.265625,-834.47265625,-578.125,810.546875,-986.328125
1.890625,562.98828125,616.69921875,451.171875,-562.98828125,-993.1640625
1.89453125,-918.45703125,-828.61328125,489.74609375,-1000.0,353.02734375
1.8984375,-930.6640625,-1000.0,-656.25,93.26171875,-810.05859375
1.90234375,555.17578125,436.5234375,-1000.0,-879.39453125,562.98828125
1.90625,-854.00390625,-850.09765625,-626.46484375,812.98828125,-812.98828125
1.91015625,701.171875,742.67578125,468.26171875,-550.78125,-1000.0
1.9140625,-776.85546875,-674.31640625,573.73046875,-1000.0,138.18359375
1.91796875,-1000.0,-1000.0,-616.2109375,-188.4765625,-861.81640625
1.9200000762939453,488.28125,281.25,-1000.0,-969.7265625,711.42578125
1.9239063262939453,-875.48828125,-856.4453125,-744.140625,889.6484375,-645.01953125
1.9278125762939453,819.3359375,796.38671875,215.33203125,-462.890625,-1000.0
1.9317188262939453,-583.984375,-566.89453125,583.49609375,-1000.0,-344.7265625
1.9356250762939453,-1000.0,-1000.0,-390.625,-559.08203125,995.1171875
1.9395313262939453,304.6875,-16.11328125,-1000.0,847.65625,841.30859375
1.9434375762939453,-858.3984375,-908.203125,-797.36328125,-963.37890625,-598.6328125
1.9473438262939453,808.10546875,824.70703125,174.31640625,-321.77734375,-1000.0
1.9512500762939453,-554.19921875,-539.55078125,679.6875,-1000.0,-412.109375
1.9551563262939453,-1000.0,-1000.0,-245.60546875,-709.47265625,963.8671875
1.9590625762939453,31.73828125,-371.09375,-1000.0,693.84765625,856.93359375
1.9629688262939453,-892.578125,967.28515625,-892.08984375,-875.0,-578.61328125
1.9649999141693115,816.89453125,900.390625,35.15625,-146.97265625,-1000.0
1.9689061641693115,-546.875,-501.953125,644.53125,-1000.0,-727.5390625
1.9728124141693115,-1000.0,-1000.0,-154.78515625,-841.30859375,759.765625
1.9767186641693115,-271.97265625,-615.234375,-942.87109375,517.08984375,959.47265625
1.9806249141693115,994.140625,813.96484375,-973.6328125,-813.4765625,-569.3359375
1.9845311641693115,917.96875,-980.46875,-179.19921875,163.57421875,-1000.0
1.9884374141693115,-439.453125,-382.32421875,572.265625,-1000.0,-695.3125
1.9923436641693115,-1000.0,-1000.0,-15.625,-865.234375,652.34375
1.9962499141693115,-558.59375,-741.69921875,-877.9296875,519.04296875,-920.8984375
2.0001561641693115,846.19140625,663.0859375,-1000.0,-816.89453125,-318.359375
2.0040624141693115,-958.49609375,-883.30078125,-325.1953125,548.828125,-1000.0
2.0079686641693115,-308.59375,-180.6640625,562.01171875,-929.19921875,-852.5390625
2.009999990463257,-1000.0,-1000.0,67.3828125,-927.24609375,549.31640625
2.013906240463257,-702.63671875,-832.51953125,-891.11328125,554.19921875,-872.55859375
2.017812490463257,681.640625,538.0859375,-1000.0,-848.14453125,-254.8828125
2.021718740463257,-858.88671875,-826.66015625,-364.74609375,695.3125,-1000.0
2.025624990463257,-30.2734375,105.46875,537.59765625,-774.90234375,-836.42578125
2.029531240463257,-1000.0,-1000.0,202.63671875,-920.8984375,505.37109375
2.033437490463257,-845.703125,-864.74609375,-790.52734375,522.94921875,-813.4765625
2.037343740463257,512.6953125,522.4609375,-1000.0,-890.625,164.55078125
2.041249990463257,-811.03515625,-818.84765625,-516.11328125,827.63671875,-1000.0
2.045156240463257,363.76953125,435.546875,485.83984375,-586.42578125,-949.21875
2.049062490463257,-1000.0,-960.44921875,383.30078125,-1000.0,417.48046875
2.052968740463257,-895.99609375,-927.24609375,-708.49609375,304.6875,-802.24609375
2.069999933242798,535.64453125,519.53125,-1000.0,-856.4453125,272.94921875
2.073906183242798,-833.0078125,-838.37890625,-607.421875,804.6875,-981.93359375
2.077812433242798,615.234375,645.99609375,410.15625,-554.19921875,-1000.0
2.081718683242798,-877.9296875,-798.828125,453.125,-1000.0,274.4140625
2.085624933242798,-942.3828125,-1000.0,-668.45703125,3.90625,-810.546875
2.089531183242798,561.5234375,412.59765625,-1000.0,-896.484375,604.4921875
2.093437433242798,-862.79296875,-852.05078125,-626.46484375,814.453125,-766.6015625
2.097343683242798,733.88671875,758.30078125,452.1484375,-545.41015625,-1000.0
2.101249933242798,-740.72265625,-649.90234375,540.52734375,-1000.0,0.0
2.105156183242798,-1000.0,-1000.0,-611.81640625,-366.2109375,-896.484375
2.109062433242798,488.28125,243.1640625,-1000.0,968.26171875,769.04296875
2.112968683242798,-875.0,-860.3515625,-740.72265625,917.48046875,-597.65625
2.0999999046325684,819.3359375,801.26953125,212.890625,-477.05078125,-1000.0
2.1039061546325684,-583.984375,-559.5703125,583.49609375,-1000.0,-410.64453125
2.1078124046325684,-1000.0,-1000.0,-376.46484375,-592.28515625,968.26171875
2.1117186546325684,304.6875,-64.94140625,-1000.0,819.3359375,833.0078125
2.1156249046325684,-857.421875,-920.8984375,-846.6796875,-950.1953125,-603.02734375
2.1195311546325684,804.19921875,830.078125,121.58203125,-311.03515625,-1000.0
2.1234374046325684,-554.19921875,-538.0859375,688.96484375,-1000.0,-474.12109375
2.1273436546325684,-1000.0,-1000.0,-234.375,-702.1484375,938.4765625
2.1312499046325684,3.90625,-417.96875,-995.60546875,682.12890625,874.51171875
2.1351561546325684,-896.97265625,942.87109375,-903.3203125,-857.91015625,-582.03125
2.1390624046325684,812.98828125,923.33984375,39.55078125,-30.2734375,-1000.0
2.1429686546325684,-543.9453125,-476.07421875,653.80859375,-1000.0,-747.0703125
2.1459999084472656,-1000.0,-1000.0,-144.04296875,-845.21484375,724.12109375
2.1499061584472656,-376.46484375,-641.6015625,-930.17578125,512.6953125,988.28125
2.1538124084472656,943.359375,784.66796875,-992.1875,-809.08203125,-517.08984375
2.1577186584472656,967.7734375,-953.125,-235.3515625,358.3984375,-1000.0
2.1616249084472656,-385.7421875,-323.73046875,596.19140625,-1000.0,-823.2421875
2.1655311584472656,-1000.0,-1000.0,33.203125,-895.01953125,604.00390625
2.1694374084472656,-605.95703125,-759.27734375,-877.9296875,535.15625,-928.7109375
2.1733436584472656,794.921875,636.71875,-1000.0,-829.1015625,-389.6484375
2.1772499084472656,-918.9453125,-866.2109375,-337.40234375,597.65625,-1000.0
2.1811561584472656,-230.95703125,-105.46875,572.265625,-892.08984375,-821.77734375
2.1850624084472656,-1000.0,-1000.0,100.5859375,-937.98828125,576.66015625
2.1889686584472656,-712.890625,-840.8203125,-884.765625,559.08203125,-872.55859375
2.2049999237060547,664.0625,528.3203125,-1000.0,-846.6796875,-236.328125
2.2089061737060547,-847.16796875,-821.2890625,-353.515625,702.63671875,-1000.0
2.2128124237060547,81.0546875,216.796875,576.66015625,-748.53515625,-854.4921875
2.2167186737060547,-1000.0,-1000.0,117.67578125,-859.375,471.6796875
2.2206249237060547,-859.375,-878.90625,-840.33203125,505.859375,-807.6171875
2.2245311737060547,518.06640625,529.296875,-1000.0,-903.3203125,229.00390625
2.2284374237060547,-812.98828125,-825.1953125,-476.07421875,835.9375,-1000.0
2.2323436737060547,407.71484375,513.18359375,477.5390625,-590.33203125,-975.5859375
2.2362499237060547,-990.72265625,-915.0390625,368.1640625,-1000.0,387.6953125
2.2401561737060547,-903.3203125,-948.2421875,-712.40234375,297.8515625,-801.26953125
2.2440624237060547,539.55078125,516.6015625,-1000.0,-856.4453125,297.8515625
2.2479686737060547,-836.42578125,-847.65625,-611.328125,805.6640625,-960.44921875
2.25,631.34765625,695.80078125,415.52734375,-554.6875,-1000.0
2.25390625,-865.72265625,-747.0703125,471.6796875,-1000.0,206.0546875
2.2578125,-951.171875,-1000.0,-666.9921875,4.39453125,-814.453125
2.26171875,571.77734375,395.99609375,-1000.0,-896.484375,541.9921875
2.265625,-872.55859375,-857.91015625,-644.53125,813.4765625,-802.734375
2.26953125,666.015625,683.10546875,412.109375,-544.43359375,-1000.0
2.2734375,-719.7265625,-647.4609375,508.30078125,-1000.0,-22.4609375
2.27734375,-1000.0,-1000.0,-575.68359375,-376.953125,-916.015625
2.28125,410.64453125,190.91796875,-1000.0,945.80078125,794.43359375
2.28515625,-865.72265625,-864.2578125,-666.9921875,962.40234375,-566.89453125
2.2890625,817.87109375,807.12890625,359.375,-397.4609375,-1000.0
2.29296875,-580.56640625,-548.33984375,585.44921875,-1000.0,-505.859375
2.2950000762939453,-1000.0,-1000.0,-417.48046875,-639.6484375,924.31640625
2.2989063262939453,273.4375,-136.71875,-1000.0,779.78515625,828.61328125
2.3028125762939453,-868.1640625,-948.2421875,-864.2578125,-927.734375,-611.328125
2.3067188262939453,833.0078125,855.46875,38.57421875,-283.69140625,-1000.0
2.3106250762939453,-504.8828125,-510.7421875,660.15625,-1000.0,-681.640625
2.3145313262939453,-1000.0,-1000.0,-179.19921875,-752.44140625,817.87109375
2.3184375762939453,15.625,-469.23828125,-967.28515625,631.8359375,916.9921875
2.3223438262939453,-924.8046875,907.71484375,-925.29296875,-847.16796875,-597.16796875
2.3262500762939453,888.18359375,961.9140625,16.11328125,-32.71484375,-1000.0
2.3301563262939453,-381.8359375,-418.9453125,654.78515625,-1000.0,-775.390625
2.3340625762939453,-1000.0,-1000.0,-152.83203125,-845.21484375,677.734375
2.3379688262939453,-367.1875,-658.69140625,-932.12890625,512.6953125,-976.07421875
2.3399999141693115,925.29296875,754.8828125,-1000.0,-809.08203125,-463.8671875
2.3439061641693115,-995.60546875,-923.33984375,-248.046875,359.375,-1000.0
2.3478124141693115,-150.390625,-222.16796875,592.28515625,-1000.0,-838.37890625
2.3517186641693115,-1000.0,-1000.0,-53.22265625,-894.53125,580.56640625
2.3556249141693115,-648.4375,-789.0625,-917.96875,536.1328125,-910.64453125
2.3595311641693115,768.06640625,599.609375,-985.3515625,-834.47265625,-359.86328125
2.3634374141693115,-905.2734375,-848.6328125,-292.96875,631.8359375,-1000.0
2.3673436641693115,81.0546875,33.69140625,608.88671875,-865.72265625,-836.42578125
2.3712499141693115,-1000.0,-1000.0,268.5546875,-945.80078125,554.6875
2.3751561641693115,-812.01171875,-861.328125,-786.62109375,565.91796875,-860.3515625
2.3790624141693115,623.53515625,523.92578125,-1000.0,-870.1171875,-204.1015625
2.3829686641693115,-847.65625,-821.77734375,-400.390625,764.16015625,-1000.0
2.384999990463257,238.28125,340.33203125,538.57421875,-681.640625,-879.39453125
2.388906240463257,-1000.0,-998.53515625,247.55859375,-1000.0,438.4765625
2.392812490463257,-882.32421875,-897.4609375,-796.875,399.4140625,-803.7109375
2.396718740463257,531.25,538.57421875,-1000.0,-864.74609375,209.47265625
2.400624990463257,-842.28515625,-837.890625,-541.50390625,815.91796875,-1000.0
2.404531240463257,643.5546875,603.515625,485.83984375,-574.70703125,-976.5625
2.408437490463257,-820.3125,-842.28515625,430.6640625,-1000.0,365.72265625
2.412343740463257,-949.21875,-983.88671875,-697.265625,228.02734375,-802.24609375
2.416249990463257,560.05859375,495.60546875,-1000.0,-857.91015625,392.578125
2.420156240463257,-859.86328125,-854.00390625,-639.6484375,805.6640625,-937.5
2.424062490463257,724.609375,733.88671875,427.24609375,-552.734375,-1000.0
2.427968740463257,-772.94921875,-699.21875,570.80078125,-1000.0,307.6171875
2.430999994277954,-967.7734375,-1000.0,-635.7421875,-60.05859375,-822.75390625
2.434906244277954,575.68359375,357.421875,-1000.0,-914.55078125,644.04296875
2.438812494277954,-884.27734375,-857.91015625,-664.55078125,822.75390625,-693.359375
2.442718744277954,813.4765625,795.8984375,382.8125,-548.828125,-1000.0
2.446624994277954,-617.1875,-586.42578125,558.59375,-1000.0,-251.953125
2.450531244277954,-1000.0,-1000.0,-548.828125,-376.46484375,-974.12109375
2.454437494277954,407.71484375,129.8828125,-1000.0,943.359375,834.9609375
2.458343744277954,-882.32421875,-878.90625,-722.16796875,967.7734375,-570.80078125
2.462249994277954,869.62890625,817.3828125,241.2109375,-386.23046875,-1000.0
2.466156244277954,-482.91015625,-532.71484375,598.6328125,-1000.0,-550.29296875
2.470062494277954,-1000.0,-1000.0,-406.73828125,-634.765625,901.85546875
2.473968744277954,219.23828125,-222.65625,-1000.0,769.53125,866.2109375
2.4749999046325684,-887.20703125,-979.00390625,-880.37109375,-905.2734375,-599.12109375
2.4789061546325684,882.32421875,878.41796875,-22.94921875,-220.21484375,-1000.0
2.4828124046325684,-375.9765625,-489.2578125,633.30078125,-1000.0,-667.96875
2.4867186546325684,-1000.0,-1000.0,-190.91796875,-770.5078125,819.82421875
2.4906249046325684,-147.4609375,-540.52734375,-968.75,597.65625,920.8984375
2.4945311546325684,-982.91015625,863.28125,-940.91796875,-829.58984375,-589.84375
2.4984374046325684,939.453125,994.140625,-18.5546875,119.62890625,-1000.0
2.5023436546325684,-253.41796875,-374.51171875,679.19921875,-1000.0,-796.875
2.5062499046325684,-1000.0,-1000.0,-165.0390625,-865.72265625,646.97265625
2.5101561546325684,-457.51953125,-696.77734375,-946.2890625,521.97265625,-958.984375
2.5140624046325684,886.23046875,716.796875,-1000.0,-812.98828125,-442.87109375
2.5179686546325684,-961.42578125,-903.3203125,-261.71875,394.53125,-1000.0
2.5199999809265137,-62.5,-185.546875,588.37890625,-996.58203125,-846.19140625
2.5239062309265137,-1000.0,-1000.0,-41.015625,-900.87890625,567.87109375
2.5278124809265137,-650.390625,-812.01171875,-911.1328125,539.0625,-901.3671875
2.5317187309265137,760.7421875,572.75390625,-1000.0,-835.44921875,-344.7265625
2.5356249809265137,-882.32421875,-833.984375,-379.8828125,631.8359375,-1000.0
2.5395312309265137,185.05859375,62.01171875,575.68359375,-865.234375,-838.8671875
2.5434374809265137,-1000.0,-1000.0,168.45703125,-948.2421875,525.87890625
2.5473437309265137,-723.14453125,-764.16015625,-855.46875,562.5,-835.44921875
2.5512499809265137,653.80859375,557.6171875,-1000.0,-869.140625,-62.01171875
2.5551562309265137,-863.28125,-837.40234375,-407.2265625,764.6484375,-1000.0
2.5590624809265137,371.58203125,389.6484375,532.71484375,-681.640625,-902.34375
2.5629687309265137,-969.7265625,-986.328125,279.78515625,-1000.0,425.29296875
2.5799999237060547,-901.85546875,-903.80859375,-790.52734375,399.4140625,-804.19921875
2.5839061737060547,534.1796875,540.0390625,-1000.0,-864.2578125,308.10546875
2.5878124237060547,-825.1953125,-838.8671875,-450.68359375,813.4765625,-967.7734375
2.5917186737060547,572.75390625,622.55859375,493.65234375,-570.80078125,-1000.0
2.5956249237060547,-908.203125,-826.171875,394.04296875,-1000.0,312.5
2.5995311737060547,-932.6171875,-1000.0,-685.546875,205.078125,-805.17578125
2.6034374237060547,555.6640625,464.84375,-1000.0,-856.4453125,496.58203125
2.6073436737060547,-854.98046875,-852.5390625,-646.97265625,799.31640625,-880.859375
2.6112499237060547,703.125,741.69921875,435.05859375,-542.96875,-1000.0
2.6151561737060547,-782.71484375,-680.6640625,565.91796875,-1000.0,286.1328125
2.6190624237060547,-1000.0,-1000.0,-625.9765625,-191.40625,-826.171875
2.6229686737060547,517.08984375,310.546875,-1000.0,-960.9375,655.76171875
2.625,-880.859375,-856.4453125,-695.3125,864.2578125,-677.24609375
2.62890625,824.70703125,795.8984375,386.71875,-505.859375,-1000.0
2.6328125,-595.703125,-574.70703125,581.0546875,-1000.0,-320.3125
2.63671875,-1000.0,-1000.0,-578.125,-523.4375,-997.55859375
2.640625,380.859375,42.48046875,-1000.0,875.9765625,843.26171875
2.64453125,-877.9296875,-895.5078125,-736.81640625,895.01953125,-579.1015625
2.6484375,861.328125,820.3125,188.4765625,-433.59375,-1000.0
2.65234375,-498.046875,-537.59765625,661.1328125,-1000.0,-543.9453125
2.65625,-1000.0,-1000.0,-278.3203125,-667.48046875,902.83203125
2.66015625,205.078125,-316.89453125,-981.93359375,749.51171875,891.6015625
2.6640625,-854.98046875,989.74609375,-884.27734375,-899.4140625,-580.56640625
2.66796875,798.828125,886.23046875,-13.671875,-221.6796875,-1000.0
2.6700000762939453,-542.96875,-508.30078125,656.73828125,-1000.0,-627.44140625
2.6739063262939453,-1000.0,-1000.0,-194.82421875,-767.578125,850.09765625
2.6778125762939453,-184.5703125,-583.0078125,-977.05078125,594.23828125,914.0625
2.6817188262939453,-977.05078125,837.40234375,-959.47265625,-826.171875,-583.0078125
2.6856250762939453,902.34375,-994.140625,-125.0,165.52734375,-1000.0
2.6895313262939453,-413.0859375,-383.30078125,637.20703125,-1000.0,-783.203125
2.6934375762939453,-1000.0,-1000.0,-66.40625,-865.234375,655.2734375
2.6973438262939453,-559.5703125,-720.703125,-918.45703125,519.04296875,-951.66015625
2.7012500762939453,844.23828125,688.96484375,-978.02734375,-816.89453125,-415.0390625
2.7051563262939453,-955.078125,-892.578125,-273.92578125,548.828125,-1000.0
2.7090625762939453,-260.7421875,-184.08203125,563.96484375,-929.19921875,-846.6796875
2.7129688262939453,-1000.0,-1000.0,16.11328125,-927.24609375,551.7578125
2.7300000190734863,-702.1484375,-824.21875,-900.87890625,553.7109375,-875.0
2.7339062690734863,685.546875,550.78125,-1000.0,-850.5859375,-267.08984375
2.7378125190734863,-862.79296875,-830.56640625,-407.2265625,687.01171875,-1000.0
2.7417187690734863,41.015625,97.16796875,548.33984375,-790.0390625,-843.26171875
2.7456250190734863,-1000.0,-1000.0,214.35546875,-1000.0,528.3203125
2.7495312690734863,-833.0078125,-865.72265625,-833.0078125,484.375,-834.9609375
2.7534375190734863,551.7578125,523.92578125,-1000.0,-864.74609375,-39.0625
2.7573437690734863,-820.3125,-819.3359375,-412.109375,786.1328125,-1000.0
2.7612500190734863,358.88671875,404.78515625,573.73046875,-633.30078125,-884.27734375
2.7651562690734863,-1000.0,-974.12109375,319.3359375,-1000.0,460.9375
2.7690625190734863,-896.484375,-916.015625,-769.04296875,321.2890625,-806.640625
2.7729687690734863,534.66796875,526.85546875,-1000.0,-859.86328125,317.3828125
2.759999990463257,-830.56640625,-837.890625,-588.8671875,812.5,-962.40234375
2.763906240463257,601.07421875,632.8125,422.36328125,-567.3828125,-1000.0
2.767812490463257,-886.71875,-813.4765625,433.10546875,-1000.0,301.7578125
2.771718740463257,-938.96484375,-1000.0,-662.109375,136.71875,-805.6640625
2.775624990463257,558.59375,434.5703125,-1000.0,-870.60546875,529.296875
2.779531240463257,-857.91015625,-851.5625,-631.8359375,807.6171875,-853.515625
2.783437490463257,714.35546875,750.48828125,438.4765625,-547.8515625,-1000.0
2.787343740463257,-762.20703125,-663.57421875,574.21875,-1000.0,232.421875
2.791249990463257,-1000.0,-1000.0,-606.4453125,-187.98828125,-839.84375
2.795156240463257,488.76953125,271.484375,-1000.0,-969.7265625,698.2421875
2.799062490463257,-875.48828125,-857.421875,-726.07421875,889.6484375,-636.23046875
2.802968740463257,819.3359375,797.36328125,322.265625,-462.40234375,-1000.0
2.805000066757202,-583.984375,-564.94140625,585.9375,-1000.0,-356.93359375
2.808906316757202,-1000.0,-1000.0,-548.828125,-557.6171875,988.76953125
2.812812566757202,305.6640625,-29.78515625,-1000.0,845.703125,848.14453125
2.816718816757202,-860.3515625,-911.1328125,-819.3359375,-958.0078125,-583.0078125
2.820625066757202,812.5,824.21875,80.56640625,-308.59375,-1000.0
2.824531316757202,-541.015625,-539.55078125,655.2734375,-1000.0,-561.5234375
2.828437566757202,-1000.0,-1000.0,-216.30859375,-707.51953125,893.5546875
2.832343816757202,4.39453125,-399.90234375,-959.47265625,690.91796875,894.04296875
2.836250066757202,-898.4375,957.51953125,-899.90234375,-869.62890625,-582.03125
2.840156316757202,818.84765625,903.3203125,-60.546875,-112.79296875,-1000.0
2.844062566757202,-541.015625,-507.32421875,642.578125,-1000.0,-666.50390625
2.847968816757202,-1000.0,-1000.0,-134.765625,-842.7734375,818.84765625
2.8499999046325684,-326.66015625,-632.32421875,-957.03125,515.625,933.59375
2.8539061546325684,968.75,799.8046875,-976.07421875,-812.5,-571.2890625
2.8578124046325684,938.4765625,-975.5859375,-147.94921875,217.7734375,-1000.0
2.8617186546325684,-404.296875,-373.53515625,622.0703125,-1000.0,-811.5234375
2.8656249046325684,-1000.0,-1000.0,-62.01171875,-874.0234375,613.76953125
2.8695311546325684,-563.4765625,-747.0703125,-915.0390625,522.94921875,-928.7109375
2.8734374046325684,844.23828125,655.2734375,-980.46875,-817.87109375,-383.7890625
2.8773436546325684,-953.61328125,-879.39453125,-250.9765625,548.828125,-1000.0
2.8812499046325684,-295.8984375,-158.203125,584.47265625,-929.19921875,-849.609375
2.8851561546325684,-1000.0,-1000.0,38.0859375,-927.24609375,548.828125
2.8890624046325684,-703.125,-835.44921875,-886.23046875,554.19921875,-873.53515625
2.8929686546325684,682.6171875,535.15625,-1000.0,-853.515625,-256.34765625
2.8949999809265137,-858.88671875,-824.70703125,-422.8515625,701.171875,-1000.0
2.8989062309265137,-30.2734375,139.6484375,514.6484375,-775.87890625,-843.75
2.9028124809265137,-1000.0,-1000.0,186.03515625,-1000.0,526.85546875
2.9067187309265137,-845.21484375,-869.140625,-835.44921875,491.2109375,-831.54296875
2.9106249809265137,512.6953125,524.90234375,-1000.0,-876.46484375,-20.99609375
2.9145312309265137,-812.5,-821.2890625,-394.53125,720.703125,-1000.0
2.9184374809265137,373.046875,456.0546875,558.59375,-617.67578125,-910.64453125
2.9223437309265137,-999.0234375,-947.265625,386.71875,-1000.0,417.48046875
2.9262499809265137,-898.4375,-932.12890625,-714.35546875,296.875,-800.29296875
2.9301562309265137,538.57421875,520.01953125,-1000.0,-854.00390625,342.7734375
2.9340624809265137,-841.30859375,-842.28515625,-562.5,804.6875,-948.2421875
2.9379687309265137,652.34375,670.8984375,422.36328125,-554.19921875,-1000.0
2.9549999237060547,-838.37890625,-776.3671875,453.61328125,-1000.0,261.23046875
2.9589061737060547,-950.1953125,-1000.0,-647.4609375,3.90625,-810.05859375
2.9628124237060547,564.94140625,408.203125,-1000.0,-895.99609375,581.0546875
2.9667186737060547,-868.65234375,-854.4921875,-698.73046875,813.96484375,-810.05859375
2.9706249237060547,757.8125,769.04296875,319.82421875,-544.43359375,-1000.0
2.9745311737060547,-712.890625,-637.6953125,568.84765625,-1000.0,148.92578125
2.9784374237060547,-1000.0,-1000.0,-559.5703125,-383.7890625,-852.5390625
2.9823436737060547,483.3984375,239.74609375,-1000.0,961.9140625,677.734375
2.9862499237060547,-874.51171875,-861.328125,-753.41796875,919.921875,-642.578125
2.9901561737060547,819.3359375,802.734375,286.62109375,-478.515625,-1000.0
2.9940624237060547,-583.984375,-556.640625,609.86328125,-1000.0,-448.73046875
2.9979686737060547,-1000.0,-1000.0,-520.99609375,-606.4453125,953.61328125
3.0,306.640625,-70.80078125,-1000.0,808.59375,852.05078125
3.00390625,-862.3046875,-927.24609375,-823.2421875,-941.89453125,-592.28515625
3.0078125,817.87109375,843.26171875,56.15234375,-318.359375,-1000.0
3.01171875,-529.296875,-517.08984375,636.23046875,-1000.0,-655.2734375
3.015625,-1000.0,-1000.0,-236.328125,-602.5390625,833.984375
3.01953125,12.6953125,-421.875,-979.00390625,716.30859375,912.109375
3.0234375,-916.015625,936.03515625,-896.484375,-874.0234375,-590.8203125
3.02734375,856.93359375,937.98828125,-19.53125,-21.97265625,-1000.0
3.03125,-426.26953125,-446.77734375,667.96875,-1000.0,-716.30859375
3.03515625,-1000.0,-1000.0,-8.7890625,-845.21484375,773.92578125
3.0390625,-369.140625,-642.578125,-896.484375,512.6953125,945.3125
3.04296875,928.22265625,776.85546875,-1000.0,-809.08203125,-576.171875
3.0460000038146973,994.62890625,-941.89453125,-186.5234375,358.88671875,-1000.0
3.0499062538146973,-166.9921875,-269.53125,612.79296875,-1000.0,-829.1015625
3.0538125038146973,-1000.0,-1000.0,-9.765625,-900.390625,597.16796875
3.0577187538146973,-638.18359375,-771.484375,-902.83203125,541.50390625,-931.15234375
3.0616250038146973,791.9921875,625.9765625,-1000.0,-830.56640625,-401.3671875
3.0655312538146973,-911.1328125,-860.3515625,-209.9609375,499.0234375,-1000.0
3.0694375038146973,-110.3515625,-48.33984375,625.0,-925.29296875,-847.65625
3.0733437538146973,-1000.0,-1000.0,37.109375,-921.875,541.9921875
3.0772500038146973,-740.72265625,-849.12109375,-878.41796875,550.29296875,-865.234375
3.0811562538146973,653.80859375,528.3203125,-1000.0,-849.609375,-225.5859375
3.0850625038146973,-854.98046875,-822.75390625,-465.33203125,696.2890625,-1000.0
3.0889687538146973,221.19140625,261.71875,531.73828125,-764.16015625,-852.05078125
3.0899999141693115,-1000.0,-1000.0,283.69140625,-1000.0,512.6953125
3.0939061641693115,-883.30078125,-886.23046875,-802.24609375,426.26953125,-826.171875
3.0978124141693115,531.73828125,533.203125,-1000.0,-869.62890625,18.06640625
3.1017186641693115,-835.44921875,-830.078125,-514.6484375,820.3125,-1000.0
3.1056249141693115,543.9453125,542.48046875,491.2109375,-583.984375,-931.640625
3.1095311641693115,-881.8359375,-891.11328125,416.50390625,-1000.0,379.39453125
3.1134374141693115,-931.15234375,-958.0078125,-717.7734375,291.9921875,-796.38671875
3.1173436641693115,548.828125,513.18359375,-1000.0,-856.93359375,430.6640625
3.1212499141693115,-841.30859375,-849.609375,-481.4453125,805.6640625,-895.99609375
3.1251561641693115,648.92578125,706.0546875,513.671875,-555.17578125,-1000.0
3.1290624141693115,-849.609375,-733.88671875,448.73046875,-1000.0,174.8046875
3.1329686641693115,-950.1953125,-1000.0,-666.015625,3.90625,-824.70703125
3.134999990463257,566.40625,381.34765625,-1000.0,-896.484375,560.546875
3.138906240463257,-870.60546875,-856.4453125,-704.58984375,813.96484375,-793.9453125
3.142812490463257,764.16015625,784.66796875,313.96484375,-544.43359375,-1000.0
3.146718740463257,-682.6171875,-607.421875,564.453125,-1000.0,-24.90234375
3.150624990463257,-1000.0,-1000.0,-578.61328125,-377.44140625,-897.4609375
3.154531240463257,406.73828125,179.19921875,-1000.0,947.265625,772.94921875
3.158437490463257,-876.953125,-871.09375,-738.76953125,958.984375,-586.9140625
3.162343740463257,849.12109375,812.98828125,276.85546875,-403.3203125,-1000.0
3.166249990463257,-526.3671875,-539.55078125,608.88671875,-1000.0,-506.8359375
3.170156240463257,-1000.0,-1000.0,-473.6328125,-639.6484375,922.8515625
3.174062490463257,251.46484375,-161.62109375,-1000.0,779.296875,849.609375
3.177968740463257,-867.1875,-956.54296875,-764.16015625,-926.7578125,-597.65625
3.180000066757202,833.984375,861.81640625,136.23046875,-282.2265625,-1000.0
3.183906316757202,-506.8359375,-505.37109375,632.8125,-1000.0,-683.10546875
3.187812566757202,-1000.0,-1000.0,-233.3984375,-764.16015625,814.94140625
3.191718816757202,22.94921875,-487.3046875,-979.98046875,631.8359375,917.48046875
3.195625066757202,-929.19921875,899.4140625,-931.640625,-847.65625,-594.7265625
3.199531316757202,794.921875,964.84375,-28.3203125,-132.32421875,-1000.0
3.203437566757202,-404.78515625,-421.38671875,682.12890625,-1000.0,-747.0703125
3.207343816757202,-1000.0,-1000.0,0.0,-829.1015625,735.3515625
3.211250066757202,-383.30078125,-668.9453125,-885.25390625,504.8828125,970.703125
3.215156316757202,940.4296875,749.51171875,-1000.0,-806.15234375,-548.33984375
3.219062566757202,991.69921875,-924.8046875,-207.51953125,358.88671875,-1000.0
3.222968816757202,-291.015625,-247.0703125,618.1640625,-1000.0,-837.890625
3.2249999046325684,-1000.0,-1000.0,-55.6640625,-894.53125,572.265625
3.2289061546325684,-643.5546875,-795.8984375,-919.921875,536.1328125,-903.80859375
3.2328124046325684,774.4140625,594.23828125,-1000.0,-834.47265625,-346.6796875
3.2367186546325684,-907.2265625,-849.609375,-375.0,631.8359375,-1000.0
3.2406249046325684,-220.21484375,-23.4375,537.109375,-865.72265625,-845.703125
3.2445311546325684,-1000.0,-1000.0,172.8515625,-945.80078125,537.59765625
3.2484374046325684,-767.578125,-854.4921875,-832.03125,565.91796875,-853.02734375
3.2523436546325684,593.26171875,520.99609375,-1000.0,-869.62890625,-169.43359375
3.2562499046325684,-826.66015625,-817.87109375,-471.19140625,764.6484375,-1000.0
3.2601561546325684,165.0390625,286.62109375,515.13671875,-681.640625,-864.2578125
3.2640624046325684,-1000.0,-1000.0,322.265625,-1000.0,485.83984375
3.2679686546325684,-865.234375,-887.6953125,-776.3671875,399.4140625,-812.01171875
3.2709999084472656,518.5546875,532.71484375,-1000.0,-863.76953125,133.7890625
3.2749061584472656,-817.3828125,-827.63671875,-530.76171875,813.96484375,-1000.0
3.2788124084472656,548.33984375,556.15234375,498.046875,-570.80078125,-966.796875
3.2827186584472656,-929.19921875,-883.30078125,402.34375,-1000.0,345.21484375
3.2866249084472656,-927.734375,-980.95703125,-731.93359375,205.078125,-801.26953125
3.2905311584472656,552.734375,478.515625,-1000.0,-856.93359375,493.65234375
3.2944374084472656,-850.5859375,-846.19140625,-573.2421875,802.24609375,-868.1640625
3.2983436584472656,684.08203125,707.03125,430.6640625,-546.875,-1000.0
3.3022499084472656,-816.89453125,-725.09765625,491.69921875,-1000.0,206.54296875
3.3061561584472656,-959.47265625,-1000.0,-638.671875,-149.4140625,-833.0078125
3.3100624084472656,567.87109375,338.37890625,-1000.0,-938.96484375,651.85546875
3.3139686584472656,-874.0234375,-854.98046875,-709.47265625,832.51953125,-727.5390625
3.3339998722076416,776.85546875,785.64453125,255.859375,-552.24609375,-1000.0
3.3379061222076416,-665.0390625,-594.23828125,614.2578125,-1000.0,-42.96875
3.3418123722076416,-1000.0,-1000.0,-389.16015625,-448.73046875,-908.69140625
3.3457186222076416,399.4140625,97.65625,-1000.0,912.109375,773.4375
3.3496248722076416,-864.74609375,-882.32421875,-798.33984375,980.46875,-586.42578125
3.3535311222076416,813.4765625,811.03515625,230.46875,-392.08984375,-1000.0
3.3574373722076416,-570.80078125,-547.8515625,664.0625,-1000.0,-508.30078125
3.3613436222076416,-1000.0,-1000.0,-355.95703125,-634.765625,921.875
3.3652498722076416,204.58984375,-250.48828125,-1000.0,769.53125,870.60546875
3.3691561222076416,-857.421875,-979.4921875,-806.15234375,-905.2734375,-583.984375
3.3730623722076416,798.828125,858.88671875,52.734375,-219.7265625,-1000.0
3.3769686222076416,-542.96875,-534.66796875,621.58203125,-1000.0,-686.03515625
3.375,-1000.0,-1000.0,-172.8515625,-779.296875,810.05859375
3.37890625,-179.19921875,-547.36328125,-960.44921875,607.91015625,920.41015625
3.3828125,-966.796875,868.65234375,-970.21484375,-830.56640625,-593.75
3.38671875,687.5,773.92578125,-47.36328125,-60.546875,-1000.0
3.390625,-549.8046875,-529.296875,677.24609375,-1000.0,-752.44140625
3.39453125,-1000.0,-1000.0,-41.015625,-835.44921875,702.1484375
3.3984375,-554.19921875,-723.14453125,-896.484375,507.8125,-979.98046875
3.40234375,868.1640625,719.7265625,-1000.0,-808.10546875,-456.0546875
3.40625,-979.98046875,-917.96875,-198.2421875,399.90234375,-1000.0
3.41015625,-346.6796875,-285.64453125,658.69140625,-994.62890625,-779.78515625
3.4140625,-1000.0,-1000.0,63.96484375,-901.85546875,632.32421875
3.41796875,-676.7578125,-811.5234375,-887.20703125,539.0625,-899.4140625
3.4200000762939453,734.86328125,567.87109375,-1000.0,-834.47265625,-294.921875
3.4239063262939453,-896.484375,-843.26171875,-378.41796875,625.9765625,-1000.0
3.4278125762939453,-223.14453125,-37.59765625,531.73828125,-850.5859375,-841.30859375
3.4317188262939453,-1000.0,-1000.0,133.7890625,-996.58203125,527.34375
3.4356250762939453,-773.92578125,-851.5625,-856.93359375,500.48828125,-835.9375
3.4395313262939453,585.44921875,519.04296875,-1000.0,-861.328125,-47.8515625
3.4434375762939453,-825.1953125,-815.4296875,-392.08984375,661.1328125,-1000.0
3.4473438262939453,164.55078125,291.9921875,547.8515625,-710.44921875,-887.6953125
3.4512500762939453,-1000.0,-1000.0,413.57421875,-1000.0,468.75
3.4551563262939453,-865.234375,-892.578125,-697.75390625,350.5859375,-808.10546875
3.4590625762939453,518.5546875,525.390625,-1000.0,-859.86328125,207.03125
3.4629688262939453,-817.3828125,-827.1484375,-550.78125,815.4296875,-1000.0
3.4649999141693115,548.33984375,565.91796875,482.421875,-572.75390625,-981.93359375
3.4689061641693115,-929.19921875,-872.0703125,425.29296875,-1000.0,336.9140625
3.4728124141693115,-927.24609375,-999.51171875,-696.77734375,205.078125,-804.6875
3.4767186641693115,553.7109375,451.66015625,-1000.0,-856.4453125,546.38671875
3.4806249141693115,-852.05078125,-845.21484375,-631.8359375,799.31640625,-835.9375
3.4845311641693115,690.91796875,718.26171875,410.64453125,-542.96875,-1000.0
3.4884374141693115,-786.1328125,-704.1015625,553.7109375,-1000.0,204.58984375
3.4923436641693115,-1000.0,-1000.0,-581.0546875,-191.89453125,-861.328125
3.4962499141693115,484.86328125,294.43359375,-1000.0,-959.47265625,666.9921875
3.5001561641693115,-868.1640625,-855.95703125,-722.65625,859.375,-626.46484375
3.5040624141693115,793.9453125,792.96875,218.75,-509.765625,-1000.0
3.5079686641693115,-624.0234375,-579.1015625,604.98046875,-1000.0,-188.96484375
3.509999990463257,-1000.0,-1000.0,-418.45703125,-563.96484375,-946.77734375
3.513906240463257,328.61328125,34.66796875,-1000.0,858.3984375,784.1796875
3.517812490463257,-861.328125,-896.484375,-803.22265625,-991.2109375,-593.26171875
3.521718740463257,814.94140625,818.84765625,149.90234375,-385.7421875,-1000.0
3.525624990463257,-572.265625,-543.45703125,644.53125,-1000.0,-576.66015625
3.529531240463257,-1000.0,-1000.0,-218.26171875,-711.9140625,886.71875
3.533437490463257,184.5703125,-305.17578125,-957.03125,699.70703125,891.11328125
3.537343740463257,-861.81640625,995.60546875,-869.140625,-887.20703125,-587.40234375
3.541249990463257,801.26953125,883.30078125,-16.6015625,-229.00390625,-1000.0
3.545156240463257,-544.43359375,-510.25390625,623.046875,-1000.0,-712.40234375
3.549062490463257,-1000.0,-1000.0,-136.71875,-809.08203125,770.01953125
3.552968740463257,-188.4765625,-577.63671875,-929.6875,539.55078125,959.47265625
3.556999921798706,-970.21484375,842.7734375,-976.5625,-817.3828125,-547.8515625
3.560906171798706,889.16015625,-998.046875,-189.94140625,164.0625,-1000.0
3.564812421798706,-462.40234375,-395.5078125,602.5390625,-1000.0,-795.41015625
3.568718671798706,-1000.0,-1000.0,-63.96484375,-865.234375,651.85546875
3.572624921798706,-558.10546875,-722.65625,-919.43359375,519.04296875,-963.37890625
3.576531171798706,845.21484375,690.4296875,-1000.0,-816.89453125,-446.2890625
3.580437421798706,-958.49609375,-895.99609375,-250.0,548.828125,-1000.0
3.584343671798706,-308.59375,-215.33203125,647.94921875,-929.19921875,-800.78125
3.588249921798706,-1000.0,-1000.0,83.0078125,-927.734375,602.05078125
3.592156171798706,-704.1015625,-823.2421875,-886.71875,553.7109375,-883.7890625
3.596062421798706,684.5703125,549.31640625,-1000.0,-849.609375,-257.8125
3.599968671798706,-862.79296875,-831.0546875,-405.76171875,683.10546875,-1000.0
3.6010000705718994,-56.640625,60.546875,527.34375,-793.45703125,-853.02734375
3.6049063205718994,-1000.0,-1000.0,176.26953125,-1000.0,521.484375
3.6088125705718994,-839.84375,-860.3515625,-820.3125,482.91015625,-836.9140625
3.6127188205718994,524.4140625,520.99609375,-1000.0,-862.3046875,-74.21875
3.6166250705718994,-813.96484375,-816.89453125,-496.58203125,776.3671875,-1000.0
3.6205313205718994,274.90234375,385.7421875,514.6484375,-640.625,-899.90234375
3.6244375705718994,-1000.0,-986.328125,454.1015625,-1000.0,434.08203125
3.6283438205718994,-882.32421875,-912.109375,-684.08203125,303.7109375,-801.7578125
3.6322500705718994,527.83203125,525.390625,-1000.0,-857.91015625,236.81640625
3.6361563205718994,-824.70703125,-836.42578125,-575.68359375,806.15234375,-998.046875
3.6400625705718994,576.171875,627.9296875,463.37890625,-556.640625,-1000.0
3.6439688205718994,-907.71484375,-819.3359375,442.87109375,-1000.0,287.59765625
3.6449999809265137,-942.87109375,-1000.0,-684.5703125,26.85546875,-802.734375
3.6489062309265137,566.40625,445.3125,-1000.0,-892.578125,562.98828125
3.6528124809265137,-853.02734375,-850.5859375,-667.48046875,816.40625,-812.5
3.6567187309265137,504.8828125,555.17578125,381.8359375,-549.8046875,-1000.0
3.6606249809265137,-852.5390625,-739.2578125,557.6171875,-1000.0,147.94921875
3.6645312309265137,-987.3046875,-1000.0,-577.1484375,-275.390625,-872.0703125
3.6684374809265137,472.65625,261.71875,-1000.0,-1000.0,746.09375
3.6723437309265137,-869.62890625,-851.5625,-718.75,903.80859375,-616.2109375
3.6762499809265137,819.3359375,798.828125,258.30078125,-469.23828125,-1000.0
3.6801562309265137,-583.49609375,-564.453125,627.44140625,-1000.0,-335.9375
3.6840624809265137,-1000.0,-1000.0,-374.0234375,-557.6171875,998.046875
3.6879687309265137,304.19921875,-15.13671875,-1000.0,845.703125,810.05859375
3.7049999237060547,-857.91015625,-909.1796875,-833.0078125,-958.0078125,-599.609375
3.7089061737060547,805.6640625,827.63671875,140.625,-308.59375,-1000.0
3.7128124237060547,-556.640625,-534.1796875,693.84765625,-1000.0,-634.27734375
3.7167186737060547,-1000.0,-1000.0,-284.66796875,-704.1015625,850.5859375
3.7206249237060547,36.1328125,-358.3984375,-1000.0,694.3359375,894.04296875
3.7245311737060547,-900.87890625,957.03125,-767.08984375,-982.91015625,-597.16796875
3.7284374237060547,731.4453125,825.68359375,113.28125,-199.21875,-1000.0
3.7323436737060547,-553.22265625,-483.3984375,659.1796875,-1000.0,-727.05078125
3.7362499237060547,-1000.0,-1000.0,-150.87890625,-844.23828125,746.58203125
3.7401561737060547,-249.51171875,-610.83984375,-932.12890625,515.625,984.86328125
3.7440624237060547,990.72265625,808.59375,-977.05078125,-810.546875,-513.671875
3.7479686737060547,952.1484375,-953.61328125,-215.33203125,222.16796875,-1000.0
3.75,-341.30859375,-271.97265625,609.375,-1000.0,-829.1015625
3.75390625,-1000.0,-1000.0,-18.06640625,-874.51171875,615.72265625
3.7578125,-562.98828125,-751.46484375,-908.69140625,523.4375,-958.984375
3.76171875,848.6328125,665.52734375,-1000.0,-817.87109375,-455.56640625
3.765625,-955.078125,-879.8828125,-295.41015625,548.828125,-1000.0
3.76953125,-299.31640625,-154.78515625,613.28125,-929.19921875,-837.40234375
3.7734375,-1000.0,-1000.0,125.0,-927.24609375,540.52734375
3.77734375,-732.421875,-846.6796875,-870.1171875,554.6875,-856.4453125
3.78125,653.80859375,535.15625,-1000.0,-851.07421875,-177.734375
3.78515625,-855.46875,-828.61328125,-359.86328125,693.84765625,-1000.0
3.7890625,-49.31640625,41.015625,524.90234375,-758.30078125,-843.26171875
3.79296875,-1000.0,-1000.0,194.3359375,-1000.0,487.79296875
3.7950000762939453,-853.515625,-870.1171875,-810.546875,392.578125,-809.5703125
3.7989063262939453,523.4375,510.7421875,-1000.0,-855.95703125,338.8671875
3.8028125762939453,-815.91796875,-812.98828125,-549.31640625,784.1796875,-994.140625
3.8067188262939453,163.0859375,284.66796875,435.546875,-610.3515625,-942.87109375
3.8106250762939453,-1000.0,-1000.0,382.32421875,-1000.0,464.35546875
3.8145313262939453,-865.234375,-939.94140625,-708.49609375,206.0546875,-814.453125
3.8184375762939453,518.5546875,440.91796875,-1000.0,-857.91015625,486.328125
3.8223438262939453,-817.3828125,-816.89453125,-596.6796875,805.17578125,-887.20703125
3.8262500762939453,548.33984375,570.3125,438.4765625,-551.26953125,-1000.0
3.8301563262939453,-929.19921875,-849.609375,477.05078125,-1000.0,311.03515625
3.8340625762939453,-927.24609375,-1000.0,-637.20703125,-93.75,-822.75390625
3.8379688262939453,553.7109375,350.5859375,-1000.0,-923.33984375,645.5078125
3.8399999141693115,-851.5625,-843.75,-670.41015625,827.63671875,-730.46875
3.8439061641693115,693.359375,741.2109375,311.5234375,-551.26953125,-1000.0
3.8478124141693115,-758.30078125,-660.64453125,543.45703125,-1000.0,6.8359375
3.8517186641693115,-1000.0,-1000.0,-515.13671875,-383.7890625,-894.04296875
3.8556249141693115,395.01953125,179.6875,-1000.0,961.9140625,769.53125
3.8595311641693115,-866.2109375,-867.67578125,-729.4921875,919.43359375,-602.5390625
3.8634374141693115,815.4296875,801.7578125,248.53515625,-479.4921875,-1000.0
3.8673436641693115,-575.1953125,-558.59375,667.48046875,-1000.0,-380.859375
3.8712499141693115,-1000.0,-1000.0,-155.76171875,-640.625,978.515625
3.8751561641693115,230.95703125,-139.6484375,-952.1484375,782.2265625,827.63671875
3.8790624141693115,-858.3984375,-941.89453125,-878.90625,-939.453125,-590.8203125
3.8829686641693115,807.6171875,836.9140625,92.7734375,-319.3359375,-1000.0
3.885999917984009,-556.640625,-544.43359375,656.25,-1000.0,-656.25
3.889906167984009,-1000.0,-1000.0,-128.41796875,-772.94921875,834.47265625
3.893812417984009,-15.625,-462.890625,-937.01171875,605.95703125,923.33984375
3.897718667984009,-902.34375,921.875,-896.97265625,-841.796875,-607.421875
3.901624917984009,815.91796875,932.6171875,-53.7109375,-33.69140625,-1000.0
3.905531167984009,-545.8984375,-478.02734375,496.58203125,-1000.0,-475.5859375
3.909437417984009,-1000.0,-1000.0,-86.9140625,-845.21484375,844.7265625
3.913343667984009,-370.60546875,-644.53125,-870.60546875,512.6953125,909.66796875
3.917249917984009,933.59375,768.5546875,-1000.0,-809.08203125,-546.875
3.921156167984009,980.46875,-936.03515625,-229.98046875,358.88671875,-1000.0
3.925062417984009,-295.41015625,-246.58203125,617.1875,-1000.0,-839.84375
3.928968667984009,-1000.0,-1000.0,189.94140625,-894.53125,604.00390625
3.930000066757202,-630.859375,-762.6953125,-812.5,536.1328125,-964.84375
3.933906316757202,762.20703125,628.90625,-1000.0,-834.9609375,-469.7265625
3.937812566757202,-902.83203125,-857.421875,-296.875,631.8359375,-1000.0
3.941718816757202,37.109375,32.2265625,607.91015625,-865.72265625,-845.21484375
3.945625066757202,-1000.0,-1000.0,134.765625,-945.80078125,537.109375
3.949531316757202,-758.30078125,-854.4921875,-858.3984375,565.91796875,-859.86328125
3.953437566757202,667.96875,536.1328125,-1000.0,-869.140625,-216.796875
3.957343816757202,-846.6796875,-825.1953125,-290.0390625,764.6484375,-1000.0
3.961250066757202,186.5234375,323.73046875,622.55859375,-681.640625,-901.85546875
3.965156316757202,-1000.0,-1000.0,258.30078125,-1000.0,454.1015625
3.969062566757202,-872.55859375,-895.99609375,-778.80859375,399.4140625,-838.37890625
3.972968816757202,527.34375,538.0859375,-1000.0,-864.2578125,-83.0078125
3.9749999046325684,-833.0078125,-836.9140625,-537.109375,813.4765625,-1000.0
3.9789061546325684,554.6875,583.0078125,475.5859375,-570.80078125,-950.68359375
3.9828124046325684,-882.8125,-862.79296875,454.58984375,-1000.0,336.9140625
3.9867186546325684,-932.6171875,-958.49609375,-713.8671875,211.42578125,-795.8984375
3.9906249046325684,549.8046875,528.3203125,-1000.0,-858.88671875,283.69140625
3.9945311546325684,-840.8203125,-852.5390625,-498.53515625,704.1015625,-975.5859375
3.9984374046325684,641.11328125,712.40234375,507.8125,-582.51953125,-1000.0
4.002343654632568,-853.515625,-732.421875,542.48046875,-1000.0,259.27734375
4.006249904632568,-948.2421875,-1000.0,-645.5078125,-131.8359375,-822.265625
4.010156154632568,565.4296875,402.34375,-1000.0,-929.19921875,452.1484375
4.014062404632568,-870.1171875,-857.421875,-640.625,829.58984375,-808.10546875
4.017968654632568,765.13671875,782.71484375,322.75390625,-551.7578125,-1000.0
4.019999980926514,-684.5703125,-613.28125,552.24609375,-1000.0,-190.4296875
4.023906230926514,-1000.0,-1000.0,-559.08203125,-426.26953125,-937.01171875
4.027812480926514,412.109375,203.61328125,-1000.0,921.875,703.61328125
4.031718730926514,-866.69921875,-865.72265625,-777.83203125,976.5625,-659.1796875
4.035624980926514,815.4296875,805.17578125,125.48828125,-390.625,-1000.0
4.039531230926514,-575.68359375,-548.33984375,653.3203125,-1000.0,-410.15625
4.043437480926514,-1000.0,-1000.0,-171.38671875,-634.765625,970.703125
4.047343730926514,236.328125,-151.85546875,-958.984375,769.53125,857.421875
4.051249980926514,-857.91015625,-944.82421875,-862.79296875,-905.2734375,-581.0546875
4.055156230926514,803.22265625,837.40234375,83.49609375,-220.21484375,-1000.0
4.059062480926514,-550.78125,-543.9453125,649.4140625,-1000.0,-664.55078125
4.062968730926514,-1000.0,-1000.0,-206.54296875,-767.578125,826.171875
4.079999923706055,-84.9609375,-498.046875,-979.00390625,594.23828125,914.55078125
4.083906173706055,-921.875,907.71484375,-901.3671875,-825.68359375,-594.23828125
4.087812423706055,824.21875,934.08203125,-6.8359375,165.0390625,-1000.0
4.091718673706055,-549.31640625,-493.65234375,625.48828125,-1000.0,-758.7890625
4.095624923706055,-1000.0,-1000.0,-121.58203125,-868.65234375,704.58984375
4.099531173706055,-408.203125,-683.59375,-918.45703125,522.4609375,-996.58203125
4.103437423706055,929.19921875,750.48828125,-983.3984375,-815.4296875,-492.1875
4.107343673706055,972.65625,-947.75390625,-302.734375,468.75,-1000.0
4.111249923706055,-389.16015625,-358.3984375,557.12890625,-964.35546875,-816.40625
4.115156173706055,-1000.0,-1000.0,184.5703125,-913.57421875,600.09765625
4.119062423706055,-636.23046875,-796.875,-807.6171875,544.921875,-906.25
4.122968673706055,772.4609375,589.84375,-1000.0,-835.44921875,-339.84375
4.125,-913.0859375,-857.421875,-384.765625,624.51171875,-1000.0
4.12890625,-240.72265625,-128.90625,560.05859375,-847.16796875,-842.7734375
4.1328125,-1000.0,-1000.0,134.765625,-1000.0,532.2265625
4.13671875,-772.4609375,-844.7265625,-871.09375,483.3984375,-846.19140625
4.140625,601.07421875,519.04296875,-1000.0,-858.88671875,-116.2109375
4.14453125,-834.9609375,-822.265625,-356.93359375,658.69140625,-1000.0
4.1484375,65.4296875,187.98828125,549.31640625,-705.078125,-857.91015625
4.15234375,-1000.0,-1000.0,320.3125,-1000.0,477.5390625
4.15625,-858.3984375,-874.0234375,-736.328125,320.80078125,-808.59375
4.16015625,518.06640625,525.87890625,-1000.0,-857.91015625,368.1640625
4.1640625,-812.5,-821.2890625,-568.84765625,813.4765625,-965.33203125
4.16796875,389.16015625,506.34765625,396.484375,-568.359375,-985.3515625
4.170000076293945,-999.0234375,-915.0390625,449.21875,-1000.0,403.80859375
4.173906326293945,-899.90234375,-971.19140625,-671.38671875,148.92578125,-805.17578125
4.177812576293945,537.59765625,474.12109375,-1000.0,-867.67578125,436.03515625
4.181718826293945,-835.44921875,-840.8203125,-648.92578125,806.15234375,-898.92578125
4.185625076293945,627.9296875,689.94140625,363.28125,-546.875,-1000.0
4.189531326293945,-856.93359375,-745.1171875,516.11328125,-1000.0,210.9375
4.193437576293945,-972.65625,-1000.0,-590.33203125,-189.453125,-833.0078125
4.197343826293945,523.4375,341.796875,-1000.0,-965.8203125,669.921875
4.201250076293945,-865.234375,-854.4921875,-645.01953125,879.39453125,-699.21875
4.205156326293945,763.671875,783.203125,361.81640625,-479.00390625,-1000.0
4.209062576293945,-683.10546875,-600.09765625,557.12890625,-1000.0,-134.27734375
4.212968826293945,-1000.0,-1000.0,-536.62109375,-562.5,-938.4765625
4.2149999141693115,398.92578125,116.2109375,-1000.0,855.95703125,761.23046875
4.2189061641693115,-864.74609375,-878.41796875,-811.5234375,-983.88671875,-608.3984375
4.2228124141693115,812.98828125,809.5703125,83.49609375,-368.65234375,-1000.0
4.2267186641693115,-570.80078125,-547.36328125,639.16015625,-1000.0,-442.3828125
4.2306249141693115,-1000.0,-1000.0,-225.5859375,-712.890625,950.1953125
4.2345311641693115,204.58984375,-233.88671875,-976.07421875,700.68359375,869.140625
4.2384374141693115,-857.421875,-971.6796875,-889.16015625,-886.71875,-575.68359375
4.2423436641693115,798.828125,853.02734375,37.59765625,-230.95703125,-1000.0
4.2462499141693115,-542.96875,-539.55078125,701.66015625,-1000.0,-569.82421875
4.2501561641693115,-1000.0,-1000.0,-140.625,-826.171875,887.6953125
4.2540624141693115,-191.40625,-547.8515625,-947.75390625,517.578125,893.06640625
4.2579686641693115,-962.40234375,874.0234375,-958.984375,-812.98828125,-592.28515625
4.259999990463257,864.2578125,965.8203125,-201.66015625,163.57421875,-1000.0
4.263906240463257,-501.46484375,-457.51953125,585.44921875,-1000.0,-789.55078125
4.267812490463257,-1000.0,-1000.0,-53.7109375,-865.234375,677.24609375
4.271718740463257,-565.4296875,-700.1953125,-909.66796875,519.04296875,995.60546875
4.275624990463257,861.328125,723.14453125,-1000.0,-816.89453125,-520.5078125
4.279531240463257,-999.0234375,-921.875,-266.6015625,548.828125,-1000.0
4.283437490463257,-401.85546875,-296.38671875,607.421875,-929.19921875,-829.1015625
4.287343740463257,-1000.0,-1000.0,129.39453125,-927.734375,581.0546875
4.291249990463257,-691.40625,-808.59375,-844.23828125,554.19921875,-900.87890625
4.295156240463257,717.28515625,570.80078125,-1000.0,-851.07421875,-332.51953125
4.299062490463257,-893.06640625,-844.23828125,-387.6953125,690.91796875,-1000.0
4.302968740463257,-225.5859375,-50.29296875,583.0078125,-786.1328125,-824.70703125
4.305000066757202,-1000.0,-1000.0,198.73046875,-1000.0,556.15234375
4.308906316757202,-784.66796875,-849.609375,-844.7265625,484.86328125,-850.09765625
4.312812566757202,570.80078125,518.06640625,-1000.0,-864.74609375,-122.55859375
4.316718816757202,-823.2421875,-814.94140625,-497.0703125,786.1328125,-1000.0
4.320625066757202,164.55078125,293.45703125,456.0546875,-627.9296875,-868.65234375
4.324531316757202,-1000.0,-1000.0,362.3046875,-1000.0,451.171875
4.328437566757202,-865.72265625,-888.671875,-725.5859375,303.7109375,-804.6875
4.332343816757202,519.04296875,531.25,-1000.0,-857.421875,412.109375
4.336250066757202,-816.89453125,-827.63671875,-531.25,804.6875,-937.01171875
4.340156316757202,535.15625,567.87109375,419.921875,-554.19921875,-1000.0
4.344062566757202,-935.05859375,-873.53515625,473.6328125,-1000.0,362.79296875
4.347968816757202,-925.29296875,-995.60546875,-631.34765625,3.90625,-801.26953125
4.349999904632568,551.7578125,459.47265625,-1000.0,-896.97265625,427.24609375
4.353906154632568,-848.6328125,-847.16796875,-658.203125,815.91796875,-888.18359375
4.357812404632568,677.24609375,720.703125,362.79296875,-547.36328125,-1000.0
4.361718654632568,-798.33984375,-704.1015625,513.18359375,-1000.0,105.46875
4.365624904632568,-1000.0,-1000.0,-597.16796875,-337.40234375,-856.93359375
4.369531154632568,482.421875,307.6171875,-1000.0,978.02734375,698.73046875
4.373437404632568,-858.88671875,-854.4921875,-654.296875,918.45703125,-664.0625
4.377343654632568,772.94921875,791.015625,347.65625,-480.46875,-1000.0
4.381249904632568,-638.671875,-578.125,559.5703125,-1000.0,-260.25390625
4.385156154632568,-1000.0,-1000.0,-499.0234375,-470.703125,-972.16796875
4.389062404632568,352.5390625,60.05859375,-1000.0,869.62890625,746.09375
4.392968654632568,-876.953125,-898.4375,-826.66015625,-971.19140625,-631.8359375
4.394999980926514,820.80078125,817.87109375,62.98828125,-301.26953125,-1000.0
4.398906230926514,-572.265625,-549.8046875,637.6953125,-1000.0,-541.50390625
4.402812480926514,-1000.0,-1000.0,-216.30859375,-704.1015625,911.1328125
4.406718730926514,152.83203125,-291.50390625,-980.95703125,684.5703125,845.21484375
4.410624980926514,-867.67578125,-997.55859375,-904.296875,-861.81640625,-609.86328125
4.414531230926514,805.17578125,875.48828125,32.2265625,-56.640625,-1000.0
4.418437480926514,-546.875,-519.53125,693.84765625,-1000.0,-641.11328125
4.422343730926514,-1000.0,-1000.0,-118.65234375,-847.16796875,836.9140625
4.426249980926514,-188.4765625,-569.3359375,-937.01171875,517.08984375,906.73828125
4.430156230926514,-970.21484375,847.65625,-968.26171875,-812.01171875,-598.14453125
4.434062480926514,889.16015625,-1000.0,-195.80078125,257.8125,-1000.0
4.437968730926514,-462.890625,-393.5546875,595.703125,-1000.0,-797.8515625
4.455999851226807,-1000.0,-1000.0,26.3671875,-880.37109375,625.9765625
4.459906101226807,-558.10546875,-716.796875,-881.34765625,526.3671875,-925.29296875
4.463812351226807,845.21484375,693.359375,-1000.0,-818.359375,-371.09375
4.467718601226807,-958.49609375,-894.53125,-334.47265625,548.828125,-1000.0
4.471624851226807,-308.59375,-194.82421875,552.24609375,-929.19921875,-851.07421875
4.475531101226807,-1000.0,-1000.0,136.71875,-927.24609375,578.125
4.479437351226807,-704.58984375,-819.82421875,-846.19140625,554.6875,-919.43359375
4.483343601226807,685.546875,556.640625,-1000.0,-853.02734375,-378.41796875
4.487249851226807,-863.76953125,-832.03125,-428.7109375,700.68359375,-1000.0
4.491156101226807,-65.4296875,77.1484375,566.89453125,-774.4140625,-844.7265625
4.495062351226807,-1000.0,-1000.0,199.70703125,-1000.0,527.83203125
4.498968601226807,-834.47265625,-862.79296875,-853.02734375,476.07421875,-850.09765625
4.500999927520752,533.203125,522.94921875,-1000.0,-873.53515625,-122.55859375
4.504906177520752,-815.91796875,-818.84765625,-509.765625,819.82421875,-1000.0
4.508812427520752,246.58203125,394.53125,477.05078125,-583.984375,-895.5078125
4.512718677520752,-1000.0,-980.95703125,367.67578125,-1000.0,430.6640625
4.516624927520752,-878.41796875,-911.1328125,-743.1640625,304.6875,-802.734375
4.520531177520752,524.90234375,530.76171875,-1000.0,-856.93359375,249.0234375
4.524437427520752,-819.3359375,-836.42578125,-544.921875,804.6875,-1000.0
4.528343677520752,548.33984375,621.58203125,472.16796875,-554.19921875,-995.1171875
4.532249927520752,-929.19921875,-825.68359375,501.953125,-1000.0,330.078125
4.536156177520752,-927.24609375,-1000.0,-605.95703125,3.90625,-799.8046875
4.540062427520752,554.19921875,443.84765625,-1000.0,-896.484375,473.14453125
4.543968677520752,-854.00390625,-850.5859375,-688.96484375,813.4765625,-852.5390625
4.545000076293945,700.68359375,742.1875,367.1875,-544.43359375,-1000.0
4.548906326293945,-776.85546875,-674.8046875,527.34375,-1000.0,41.9921875
4.552812576293945,-1000.0,-1000.0,-610.83984375,-381.8359375,-867.1875
4.556718826293945,488.28125,282.2265625,-1000.0,957.51953125,549.31640625
4.560625076293945,-875.48828125,-856.4453125,-709.9609375,932.6171875,-747.0703125
4.564531326293945,818.84765625,795.8984375,253.90625,-454.1015625,-1000.0
4.568437576293945,-583.984375,-567.3828125,614.74609375,-1000.0,-302.24609375
4.572343826293945,-1000.0,-1000.0,-391.11328125,-627.9296875,-985.3515625
4.576250076293945,304.6875,-17.08984375,-1000.0,793.45703125,842.28515625
4.580156326293945,-857.421875,-907.2265625,-849.12109375,-942.3828125,-568.84765625
4.584062576293945,804.19921875,822.75390625,17.08984375,-315.4296875,-1000.0
4.587968826293945,-554.19921875,-542.96875,640.625,-1000.0,-605.95703125
4.5899999141693115,-1000.0,-1000.0,-145.99609375,-727.05078125,870.1171875
4.5939061641693115,3.90625,-370.1171875,-946.2890625,655.2734375,875.48828125
4.5978124141693115,-897.94921875,968.75,-949.70703125,-852.5390625,-604.00390625
4.6017186641693115,822.75390625,903.80859375,-81.54296875,-31.25,-1000.0
4.6056249141693115,-556.15234375,-512.20703125,659.1796875,-1000.0,-729.4921875
4.6095311641693115,-1000.0,-1000.0,-59.08203125,-845.21484375,755.859375
4.6134374141693115,-196.77734375,-510.7421875,-928.7109375,512.6953125,846.19140625
4.6173436641693115,-981.93359375,849.609375,-962.890625,-809.5703125,-614.2578125
4.6212499141693115,908.203125,-995.1171875,-60.546875,358.88671875,-1000.0
4.6251561641693115,-429.19921875,-366.69921875,645.99609375,-1000.0,-826.171875
4.6290624141693115,-1000.0,-1000.0,-20.5078125,-894.53125,594.7265625
4.6329686641693115,-558.10546875,-731.4453125,-891.11328125,536.1328125,-903.80859375
4.634999990463257,845.21484375,669.921875,-1000.0,-834.9609375,-335.9375
4.638906240463257,-956.0546875,-879.8828125,-351.5625,631.8359375,-1000.0
4.642812490463257,-302.24609375,-149.4140625,528.80859375,-865.72265625,-854.4921875
4.646718740463257,-1000.0,-1000.0,105.46875,-945.80078125,553.22265625
4.650624990463257,-702.63671875,-831.0546875,-869.140625,564.94140625,-882.8125
4.654531240463257,682.12890625,539.0625,-1000.0,-866.69921875,-284.66796875
4.658437490463257,-858.88671875,-825.1953125,-400.87890625,753.90625,-1000.0
4.662343740463257,-30.2734375,158.203125,536.1328125,-698.73046875,-866.2109375
4.666249990463257,-1000.0,-1000.0,195.3125,-1000.0,495.1171875
4.670156240463257,-845.703125,-871.09375,-833.0078125,418.45703125,-832.51953125
4.674062490463257,512.20703125,525.390625,-1000.0,-867.67578125,-58.59375
4.677968740463257,-810.05859375,-821.77734375,-426.7578125,818.84765625,-1000.0
4.680000066757202,358.3984375,474.609375,523.4375,-581.54296875,-938.96484375
4.683906316757202,-1000.0,-941.89453125,358.88671875,-1000.0,374.51171875
4.687812566757202,-899.90234375,-930.6640625,-727.5390625,274.4140625,-801.7578125
4.691718816757202,541.9921875,528.3203125,-1000.0,-857.421875,208.49609375
4.695625066757202,-837.40234375,-845.21484375,-621.58203125,806.640625,-1000.0
4.699531316757202,531.73828125,676.26953125,412.109375,-556.15234375,-1000.0
4.703437566757202,-899.90234375,-776.85546875,523.92578125,-1000.0,296.875
4.707343816757202,-929.6875,-1000.0,-606.4453125,3.90625,-808.59375
4.711250066757202,556.640625,427.734375,-1000.0,-896.484375,331.0546875
4.715156316757202,-867.1875,-856.93359375,-703.125,813.96484375,-884.27734375
4.719062566757202,759.765625,772.94921875,318.359375,-544.43359375,-1000.0
4.722968816757202,-712.890625,-636.23046875,489.2578125,-1000.0,-86.9140625
4.726999998092651,-1000.0,-1000.0,-597.16796875,-375.9765625,-895.5078125
4.730906248092651,491.2109375,262.6953125,-1000.0,943.84765625,544.921875
4.734812498092651,-875.0,-858.88671875,-746.58203125,967.7734375,-744.62890625
4.738718748092651,819.3359375,802.734375,192.87109375,-386.23046875,-1000.0
4.742624998092651,-583.984375,-556.15234375,589.35546875,-1000.0,-471.19140625
4.746531248092651,-1000.0,-1000.0,-416.50390625,-634.765625,947.265625
4.750437498092651,304.6875,-49.8046875,-1000.0,769.53125,875.0
4.754343748092651,-857.421875,-916.015625,-838.37890625,-905.76171875,-573.73046875
4.758249998092651,804.19921875,827.63671875,9.765625,-219.23828125,-1000.0
4.762156248092651,-554.19921875,-538.57421875,640.625,-1000.0,-656.73828125
4.766062498092651,-1000.0,-1000.0,-195.80078125,-762.6953125,836.42578125
4.769968748092651,3.90625,-415.0390625,-964.84375,610.3515625,887.20703125
4.770999908447266,-896.97265625,946.2890625,-951.66015625,-833.984375,-611.81640625
4.774906158447266,812.98828125,918.9453125,-112.3046875,91.796875,-1000.0
4.778812408447266,-544.43359375,-486.328125,638.671875,-1000.0,-755.37109375
4.782718658447266,-1000.0,-1000.0,-133.7890625,-861.81640625,726.5625
4.786624908447266,-376.46484375,-645.5078125,-959.47265625,520.5078125,969.23828125
4.790531158447266,943.359375,784.66796875,-953.61328125,-812.01171875,-551.26953125
4.794437408447266,967.28515625,-957.03125,-86.42578125,389.6484375,-1000.0
4.798343658447266,-386.23046875,-350.09765625,640.625,-999.0234375,-825.68359375
4.802249908447266,-1000.0,-1000.0,-35.64453125,-899.90234375,612.3046875
4.806156158447266,-628.41796875,-770.01953125,-903.80859375,538.57421875,-949.21875
4.810062408447266,779.296875,624.51171875,-1000.0,-835.44921875,-437.01171875
4.813968658447266,-916.50390625,-865.234375,-378.90625,631.8359375,-1000.0
4.829999923706055,-242.67578125,-135.25390625,515.625,-865.72265625,-847.16796875
4.833906173706055,-1000.0,-1000.0,151.3671875,-945.80078125,541.9921875
4.837812423706055,-746.58203125,-841.30859375,-828.125,565.4296875,-869.62890625
4.841718673706055,632.32421875,525.87890625,-1000.0,-869.62890625,-234.86328125
4.845624923706055,-843.26171875,-820.3125,-441.40625,764.6484375,-1000.0
4.849531173706055,41.50390625,166.9921875,535.64453125,-681.640625,-859.86328125
4.853437423706055,-1000.0,-1000.0,348.14453125,-1000.0,499.51171875
4.857343673706055,-855.95703125,-871.58203125,-759.27734375,399.4140625,-826.66015625
4.861249923706055,517.578125,524.90234375,-1000.0,-864.2578125,23.4375
4.865156173706055,-811.5234375,-820.3125,-459.47265625,813.96484375,-1000.0
4.869062423706055,358.3984375,481.4453125,487.79296875,-570.80078125,-949.70703125
4.872968673706055,-1000.0,-934.5703125,379.8828125,-1000.0,359.375
4.875,-894.53125,-949.21875,-716.30859375,205.078125,-794.921875
4.87890625,535.64453125,500.9765625,-1000.0,-856.4453125,346.19140625
4.8828125,-835.44921875,-841.796875,-638.18359375,805.6640625,-940.4296875
4.88671875,631.34765625,680.6640625,385.25390625,-550.78125,-1000.0
4.890625,-865.72265625,-761.23046875,501.46484375,-1000.0,211.42578125
4.89453125,-945.80078125,-1000.0,-615.234375,-74.70703125,-825.1953125
4.8984375,565.4296875,375.48828125,-1000.0,-923.828125,505.859375
4.90234375,-870.1171875,-854.98046875,-667.48046875,851.5625,-825.1953125
4.90625,763.671875,779.78515625,353.515625,-495.1171875,-1000.0
4.91015625,-681.640625,-614.74609375,664.0625,-1000.0,160.64453125
4.9140625,-1000.0,-1000.0,-350.09765625,-463.37890625,-850.09765625
4.91796875,398.92578125,183.59375,-1000.0,904.296875,557.6171875
4.920000076293945,-866.2109375,-869.62890625,-796.38671875,988.76953125,-692.87109375
4.923906326293945,816.40625,806.640625,169.921875,-380.37109375,-1000.0
4.927812576293945,-577.63671875,-549.8046875,598.6328125,-1000.0,-529.296875
4.931718826293945,-1000.0,-1000.0,-405.76171875,-635.25390625,920.8984375
4.935625076293945,249.0234375,-145.99609375,-1000.0,770.01953125,865.234375
4.939531326293945,-864.74609375,-949.70703125,-837.890625,-905.2734375,-596.19140625
4.943437576293945,823.73046875,854.00390625,39.55078125,-220.21484375,-1000.0
4.947343826293945,-526.85546875,-515.625,649.90234375,-1000.0,-689.453125
4.951250076293945,-1000.0,-1000.0,-108.3984375,-767.578125,811.5234375
4.955156326293945,12.6953125,-470.21484375,-915.52734375,594.23828125,900.87890625
4.959062576293945,-918.45703125,908.203125,-978.02734375,-825.68359375,-614.74609375
4.962968826293945,874.51171875,961.9140625,-141.11328125,165.52734375,-1000.0
4.9649999141693115,-427.24609375,-422.8515625,649.90234375,-1000.0,-794.921875
4.9689061641693115,-1000.0,-1000.0,-99.12109375,-865.234375,695.3125
4.9728124141693115,-366.69921875,-656.73828125,-946.77734375,518.5546875,949.70703125
4.9767186641693115,926.7578125,756.8359375,-976.07421875,-816.89453125,-595.703125
4.9806249141693115,-999.0234375,-923.33984375,-192.87109375,548.828125,-1000.0
4.9845311641693115,-203.125,-232.91015625,614.74609375,-929.19921875,-817.87109375
4.9884374141693115,-1000.0,-1000.0,17.08984375,-927.24609375,576.66015625
4.9923436641693115,-647.4609375,-788.0859375,-902.34375,554.6875,-876.953125
4.9962499141693115,771.484375,607.421875,-994.62890625,-854.4921875,-273.92578125
5.0001561641693115,-904.296875,-849.12109375,-371.58203125,706.0546875,-1000.0
5.0040624141693115,-63.4765625,-45.41015625,451.66015625,-789.0625,-761.71875
5.0079686641693115,-1000.0,-1000.0,149.90234375,-982.91015625,595.21484375
5.009999990463257,-785.64453125,-845.703125,-828.61328125,544.921875,-910.64453125
5.013906240463257,614.74609375,519.53125,-1000.0,-877.9296875,-297.8515625
5.017812490463257,-844.7265625,-818.84765625,-479.98046875,805.17578125,-1000.0
5.021718740463257,232.91015625,341.30859375,505.859375,-629.39453125,-887.6953125
5.025624990463257,-1000.0,-1000.0,292.48046875,-1000.0,432.6171875
5.029531240463257,-881.34765625,-896.97265625,-784.66796875,400.87890625,-814.453125
5.033437490463257,528.80859375,538.0859375,-1000.0,-862.79296875,72.75390625
5.037343740463257,-835.44921875,-835.9375,-488.28125,813.96484375,-1000.0
5.041249990463257,615.234375,601.07421875,472.65625,-570.80078125,-978.02734375
5.045156240463257,-849.609375,-851.5625,405.2734375,-1000.0,316.89453125
5.049062490463257,-942.3828125,-978.515625,-701.66015625,205.078125,-793.45703125
5.052968740463257,557.12890625,502.44140625,-1000.0,-856.4453125,353.02734375
5.055999994277954,-854.98046875,-854.00390625,-660.15625,799.31640625,-934.08203125
5.059906244277954,708.0078125,731.4453125,388.18359375,-542.48046875,-1000.0
5.063812494277954,-795.41015625,-706.0546875,555.6640625,-1000.0,184.5703125
5.067718744277954,-964.35546875,-1000.0,-594.23828125,-175.78125,-833.49609375
5.071624994277954,575.68359375,367.67578125,-1000.0,-960.9375,410.64453125
5.075531244277954,-887.20703125,-858.88671875,-507.8125,601.5625,-862.3046875
5.079437494277954,821.2890625,797.36328125,407.2265625,-587.890625,-1000.0
5.083343744277954,-606.4453125,-586.42578125,603.02734375,-1000.0,60.05859375
5.087249994277954,-1000.0,-1000.0,-506.34765625,-554.19921875,-869.140625
5.091156244277954,407.71484375,147.4609375,-1000.0,865.234375,542.48046875
5.095062494277954,-882.32421875,-875.48828125,-770.5078125,-962.40234375,-707.03125
5.098968744277954,870.1171875,815.91796875,145.01953125,-304.19921875,-1000.0
5.099999904632568,-483.88671875,-534.1796875,599.609375,-1000.0,-606.93359375
5.103906154632568,-1000.0,-1000.0,-423.828125,-659.1796875,882.8125
5.107812404632568,230.95703125,-194.3359375,-1000.0,732.91015625,887.20703125
5.111718654632568,-882.8125,-975.09765625,-869.140625,-872.0703125,-599.609375
5.115624904632568,767.578125,780.76171875,35.64453125,-120.1171875,-1000.0
5.119531154632568,-454.58984375,-515.13671875,676.26953125,-1000.0,-704.58984375
5.123437404632568,-1000.0,-1000.0,-156.73828125,-768.5546875,795.8984375
5.127343654632568,-41.015625,-509.27734375,-921.875,590.8203125,909.66796875
5.131249904632568,-970.21484375,875.0,-977.5390625,-821.77734375,-616.2109375
5.135156154632568,963.37890625,-992.67578125,-182.12890625,309.5703125,-1000.0
5.139062404632568,-117.1875,-307.12890625,628.41796875,-1000.0,-835.44921875
5.142968654632568,-1000.0,-1000.0,-141.11328125,-887.6953125,648.4375
5.144999980926514,-378.41796875,-675.29296875,-957.03125,530.2734375,957.51953125
5.148906230926514,920.41015625,734.86328125,-991.69921875,-821.2890625,-601.5625
5.152812480926514,-972.16796875,-899.90234375,-297.8515625,557.6171875,-1000.0
5.156718730926514,98.14453125,-118.65234375,564.453125,-922.36328125,-842.7734375
5.160624980926514,-1000.0,-1000.0,-19.53125,-929.19921875,536.62109375
5.164531230926514,-670.8984375,-803.22265625,-914.55078125,555.17578125,-864.2578125
5.168437480926514,770.99609375,580.56640625,-1000.0,-854.4921875,-225.09765625
5.172343730926514,-900.87890625,-838.37890625,-366.69921875,704.58984375,-1000.0
5.176249980926514,315.4296875,213.37890625,589.35546875,-784.1796875,-877.44140625
5.180156230926514,-983.88671875,-1000.0,181.640625,-997.0703125,541.015625
5.184062480926514,-840.8203125,-882.8125,-856.4453125,525.87890625,-890.13671875
5.187968730926514,631.8359375,533.203125,-1000.0,-881.8359375,-283.69140625
5.204999923706055,-875.48828125,-833.0078125,-515.13671875,827.63671875,-1000.0
5.208906173706055,578.125,499.51171875,531.25,-600.09765625,-876.953125
5.212812423706055,-811.5234375,-912.109375,432.12890625,-1000.0,466.796875
5.216718673706055,-944.82421875,-924.31640625,-769.53125,400.87890625,-828.61328125
5.220624923706055,561.03515625,552.24609375,-1000.0,-862.79296875,29.296875
5.224531173706055,-872.55859375,-854.98046875,-501.953125,813.96484375,-1000.0
5.228437423706055,769.53125,704.1015625,498.046875,-570.80078125,-1000.0
5.232343673706055,-702.1484375,-757.8125,424.8046875,-1000.0,182.6171875
5.236249923706055,-977.5390625,-1000.0,-729.4921875,205.078125,-812.5
5.240156173706055,575.68359375,485.83984375,-1000.0,-856.4453125,603.515625
5.244062423706055,-883.7890625,-863.76953125,-660.64453125,799.31640625,-755.37109375
5.247968673706055,818.359375,779.78515625,341.30859375,-542.96875,-1000.0
5.25,-666.50390625,-641.11328125,520.01953125,-1000.0,-122.55859375
5.25390625,-990.72265625,-1000.0,-647.94921875,-186.5234375,-906.73828125
5.2578125,585.9375,328.61328125,-1000.0,-973.6328125,553.7109375
5.26171875,-900.390625,-864.2578125,-749.51171875,900.390625,-761.71875
5.265625,867.1875,820.3125,271.484375,-442.3828125,-1000.0
5.26953125,-536.1328125,-540.0390625,612.79296875,-1000.0,-479.00390625
5.2734375,-1000.0,-1000.0,-551.7578125,-558.10546875,945.80078125
5.27734375,420.41015625,62.98828125,-1000.0,846.6796875,833.49609375
5.28125,-908.69140625,-913.0859375,-775.87890625,-957.51953125,-611.81640625
5.28515625,941.89453125,875.48828125,251.46484375,-307.12890625,-1000.0
5.2890625,-334.47265625,-430.17578125,605.95703125,-1000.0,-580.56640625
5.29296875,-1000.0,-1000.0,-425.29296875,-671.875,851.5625
5.295000076293945,235.3515625,-307.12890625,-996.58203125,710.44921875,900.87890625
5.298906326293945,-925.29296875,958.0078125,-924.8046875,-866.2109375,-590.33203125
5.302812576293945,986.81640625,966.30859375,-91.30859375,-22.4609375,-1000.0
5.306718826293945,-105.95703125,-298.828125,629.39453125,-1000.0,-793.45703125
5.310625076293945,-1000.0,-1000.0,-229.98046875,-790.0390625,684.5703125
5.314531326293945,-160.64453125,-598.6328125,-971.6796875,589.84375,974.12109375
5.318437576293945,961.42578125,797.36328125,-976.07421875,-822.75390625,-558.10546875
5.322343826293945,-946.77734375,-928.7109375,-203.61328125,323.2421875,-1000.0
5.326250076293945,216.796875,-97.16796875,629.39453125,-1000.0,-804.6875
5.330156326293945,-1000.0,-1000.0,-151.85546875,-890.13671875,626.953125
5.334062576293945,-580.078125,-764.6484375,-968.26171875,530.76171875,-936.03515625
5.337968826293945,825.68359375,656.73828125,-1000.0,-820.3125,-399.4140625
5.355000019073486,-900.87890625,-866.69921875,-314.94140625,549.8046875,-1000.0
5.358906269073486,426.7578125,49.31640625,585.9375,-928.7109375,-839.84375
5.362812519073486,-999.51171875,-1000.0,-18.5546875,-927.24609375,527.83203125
5.366718769073486,-786.62109375,-865.234375,-925.29296875,554.6875,-842.7734375
5.370625019073486,715.8203125,541.9921875,-1000.0,-853.515625,-106.4453125
5.374531269073486,-876.953125,-829.58984375,-405.2734375,701.66015625,-1000.0
5.378437519073486,396.97265625,217.28515625,563.4765625,-776.3671875,-863.76953125
5.382343769073486,-943.84765625,-1000.0,198.73046875,-1000.0,498.53515625
5.386250019073486,-918.45703125,-892.578125,-830.56640625,488.76953125,-813.96484375
5.390156269073486,552.24609375,516.6015625,-1000.0,-874.51171875,154.296875
5.394062519073486,-848.6328125,-820.3125,-555.6640625,819.82421875,-1000.0
5.397968769073486,493.65234375,441.89453125,472.16796875,-583.49609375,-945.3125
5.384999990463257,-878.41796875,-936.5234375,321.77734375,-1000.0,393.5546875
5.388906240463257,-926.26953125,-966.30859375,-782.71484375,305.17578125,-806.640625
5.392812490463257,548.33984375,450.68359375,-1000.0,-856.93359375,503.41796875
5.396718740463257,-848.14453125,-827.1484375,-583.984375,804.6875,-883.7890625
5.400624990463257,673.828125,616.69921875,416.50390625,-554.19921875,-1000.0
5.404531240463257,-807.12890625,-799.8046875,396.484375,-1000.0,330.56640625
5.408437490463257,-955.078125,-1000.0,-691.89453125,3.90625,-836.9140625
5.412343740463257,562.5,277.34375,-1000.0,-896.484375,713.8671875
5.416249990463257,-854.4921875,-853.515625,-717.7734375,813.4765625,-677.734375
5.420156240463257,703.61328125,735.83984375,273.92578125,-544.43359375,-1000.0
5.424062490463257,-747.0703125,-659.66796875,519.04296875,-1000.0,87.40234375
5.427968740463257,-1000.0,-1000.0,-542.48046875,-383.7890625,-884.765625
5.430000066757202,395.5078125,41.015625,-1000.0,961.9140625,787.59765625
5.433906316757202,-865.72265625,-902.83203125,-795.8984375,919.43359375,-573.2421875
5.437812566757202,814.453125,809.5703125,168.45703125,-479.00390625,-1000.0
5.441718816757202,-573.2421875,-567.87109375,577.1484375,-1000.0,-318.359375
5.445625066757202,-1000.0,-1000.0,-466.796875,-626.953125,998.53515625
5.449531316757202,219.7265625,-268.06640625,-1000.0,792.96875,855.95703125
5.453437566757202,-857.91015625,-989.2578125,-807.12890625,-942.3828125,-563.96484375
5.457343816757202,805.17578125,850.5859375,194.82421875,-316.89453125,-1000.0
5.461250066757202,-552.734375,-561.5234375,681.640625,-1000.0,-541.015625
5.465156316757202,-1000.0,-1000.0,-207.03125,-748.53515625,888.671875
5.469062566757202,-72.75390625,-534.66796875,-948.73046875,632.32421875,929.19921875
5.472968816757202,-918.9453125,892.578125,-947.75390625,-847.65625,-520.99609375
5.474999904632568,823.73046875,914.0625,-138.671875,-32.71484375,-1000.0
5.478906154632568,-549.8046875,-544.43359375,603.02734375,-1000.0,-716.796875
5.482812404632568,-1000.0,-1000.0,-42.96875,-849.12109375,757.32421875
5.486718654632568,-383.30078125,-687.01171875,-904.296875,516.6015625,980.95703125
5.490624904632568,959.47265625,758.30078125,-1000.0,-811.5234375,-506.34765625
5.494531154632568,923.828125,-973.14453125,-200.68359375,290.52734375,-1000.0
5.498437404632568,-469.7265625,-412.59765625,649.90234375,-1000.0,-709.9609375
5.502343654632568,-1000.0,-1000.0,84.47265625,-884.765625,719.7265625
5.506249904632568,-641.11328125,-786.1328125,-884.765625,528.80859375,-936.5234375
5.510156154632568,782.2265625,609.86328125,-1000.0,-822.75390625,-350.5859375
5.514062404632568,-939.94140625,-871.58203125,-244.62890625,567.87109375,-1000.0
5.517968654632568,-319.82421875,-186.03515625,599.609375,-915.0390625,-845.703125
5.519999980926514,-1000.0,-1000.0,92.28515625,-931.640625,539.55078125
5.523906230926514,-772.94921875,-838.8671875,-854.00390625,555.6640625,-856.93359375
5.527812480926514,604.98046875,521.97265625,-1000.0,-846.19140625,-184.5703125
5.531718730926514,-842.7734375,-821.2890625,-439.453125,687.5,-1000.0
5.535624980926514,-34.1796875,145.01953125,502.9296875,-756.34765625,-851.5625
5.539531230926514,-1000.0,-1000.0,281.73828125,-969.7265625,505.37109375
5.543437480926514,-850.5859375,-874.0234375,-749.0234375,429.6875,-812.01171875
5.547343730926514,518.06640625,530.2734375,-1000.0,-880.859375,106.93359375
5.551249980926514,-812.01171875,-822.75390625,-503.90625,821.2890625,-1000.0
5.555156230926514,258.7890625,377.44140625,468.75,-573.73046875,-841.796875
5.559062480926514,-1000.0,-968.75,441.40625,-1000.0,436.03515625
5.562968730926514,-878.41796875,-930.6640625,-685.546875,205.078125,-815.4296875
5.605999946594238,527.83203125,496.09375,-1000.0,-857.421875,366.69921875
5.609906196594238,-832.51953125,-840.33203125,-548.828125,803.7109375,-936.5234375
5.613812446594238,631.34765625,683.10546875,487.79296875,-548.828125,-1000.0
5.617718696594238,-865.72265625,-758.7890625,494.62890625,-1000.0,209.47265625
5.621624946594238,-945.80078125,-1000.0,-633.7890625,-123.53515625,-825.68359375
5.625531196594238,565.4296875,383.30078125,-1000.0,-932.12890625,656.73828125
5.629437446594238,-870.1171875,-855.46875,-650.390625,831.54296875,-720.21484375
5.633343696594238,763.671875,780.2734375,343.75,-553.7109375,-1000.0
5.637249946594238,-681.640625,-617.1875,564.94140625,-1000.0,-93.26171875
5.641156196594238,-1000.0,-1000.0,-423.33984375,-376.46484375,-919.43359375
5.645062446594238,398.92578125,199.21875,-1000.0,944.3359375,746.09375
5.648968696594238,-865.72265625,-867.67578125,-793.45703125,966.796875,-639.6484375
5.626999855041504,816.40625,809.08203125,211.9140625,-388.671875,-1000.0
5.630906105041504,-576.66015625,-547.36328125,672.8515625,-1000.0,-320.80078125
5.634812355041504,-1000.0,-1000.0,-336.42578125,-625.9765625,993.1640625
5.638718605041504,253.90625,-111.328125,-1000.0,795.8984375,810.05859375
5.642624855041504,-859.86328125,-942.3828125,-639.16015625,702.63671875,-600.5859375
5.646531105041504,619.62890625,657.2265625,271.97265625,-443.84765625,-1000.0
5.650437355041504,-617.1875,-585.44921875,555.6640625,-1000.0,-564.94140625
5.654343605041504,-1000.0,-1000.0,-163.57421875,-807.12890625,859.375
5.658249855041504,-20.5078125,-477.05078125,-925.29296875,618.1640625,909.66796875
5.662156105041504,-897.94921875,919.43359375,-871.09375,-842.28515625,-569.82421875
5.666062355041504,827.1484375,956.0546875,6.8359375,-33.69140625,-1000.0
5.669968605041504,-525.390625,-430.17578125,609.375,-1000.0,-783.203125
5.670000076293945,-1000.0,-1000.0,-45.41015625,-845.21484375,697.265625
5.673906326293945,-376.46484375,-657.2265625,-903.80859375,512.20703125,970.703125
5.677812576293945,943.84765625,759.27734375,-1000.0,-809.5703125,-558.59375
5.681718826293945,967.28515625,-928.7109375,-206.0546875,359.375,-1000.0
5.685625076293945,-386.71875,-247.0703125,623.046875,-1000.0,-793.45703125
5.689531326293945,-1000.0,-1000.0,57.6171875,-894.53125,639.16015625
5.693437576293945,-634.765625,-786.1328125,-884.27734375,536.1328125,-940.4296875
5.697343826293945,769.04296875,604.00390625,-1000.0,-834.9609375,-403.3203125
5.701250076293945,-905.76171875,-851.07421875,-253.90625,631.8359375,-1000.0
5.705156326293945,-220.21484375,-7.8125,603.515625,-865.72265625,-843.26171875
5.709062576293945,-1000.0,-1000.0,72.75390625,-945.80078125,534.1796875
5.712968826293945,-767.08984375,-854.4921875,-868.1640625,565.4296875,-850.09765625
5.7149999141693115,594.23828125,523.92578125,-1000.0,-869.62890625,-169.921875
5.7189061641693115,-830.56640625,-820.80078125,-474.609375,764.6484375,-1000.0
5.7228124141693115,187.01171875,313.96484375,491.2109375,-681.640625,-885.25390625
5.7267186641693115,-1000.0,-1000.0,321.2890625,-1000.0,457.51953125
5.7306249141693115,-871.09375,-892.578125,-747.55859375,399.4140625,-814.94140625
5.7345311641693115,522.4609375,535.64453125,-1000.0,-863.76953125,94.7265625
5.7384374141693115,-822.75390625,-833.0078125,-503.41796875,813.96484375,-1000.0
5.7423436641693115,551.7578125,582.51953125,509.27734375,-570.80078125,-919.43359375
5.7462499141693115,-913.0859375,-865.234375,510.7421875,-1000.0,438.4765625
5.7501561641693115,-929.19921875,-976.07421875,-639.6484375,205.078125,-802.734375
5.7540624141693115,552.24609375,499.0234375,-1000.0,-856.4453125,331.0546875
5.7579686641693115,-850.09765625,-852.05078125,-609.86328125,799.31640625,-930.17578125
5.759999990463257,682.12890625,725.09765625,400.87890625,-542.96875,-1000.0
5.763906240463257,-818.84765625,-712.40234375,482.91015625,-1000.0,132.32421875
5.767812490463257,-957.51953125,-1000.0,-634.765625,-194.3359375,-837.890625
5.771718740463257,570.3125,365.72265625,-1000.0,-953.61328125,654.78515625
5.775624990463257,-875.48828125,-857.421875,-697.75390625,843.75,-728.515625
5.779531240463257,781.25,794.43359375,346.6796875,-544.43359375,-1000.0
5.783437490463257,-659.1796875,-590.8203125,609.375,-1000.0,-92.28515625
5.787343740463257,-1000.0,-1000.0,-467.28515625,-481.4453125,-920.8984375
5.791249990463257,404.296875,148.4375,-1000.0,898.4375,712.890625
5.795156240463257,-876.953125,-875.48828125,-800.29296875,986.328125,-656.25
5.799062490463257,851.07421875,815.4296875,152.34375,-394.53125,-1000.0
5.802968740463257,-511.23046875,-535.15625,690.91796875,-1000.0,-297.8515625
5.805000066757202,-1000.0,-1000.0,-268.06640625,-635.7421875,-989.74609375
5.808906316757202,213.8671875,-203.125,-1000.0,768.5546875,790.52734375
5.812812566757202,-875.9765625,-973.14453125,-857.91015625,-905.2734375,-597.65625
5.816718816757202,852.05078125,878.41796875,56.15234375,-220.21484375,-1000.0
5.820625066757202,-440.91796875,-484.86328125,641.11328125,-1000.0,-701.171875
5.824531316757202,-1000.0,-1000.0,-172.8515625,-767.578125,791.50390625
5.828437566757202,-123.53515625,-515.625,-955.56640625,594.23828125,942.3828125
5.832343816757202,-976.07421875,873.53515625,-891.6015625,-825.68359375,-568.84765625
5.836250066757202,935.05859375,995.1171875,-55.6640625,165.52734375,-1000.0
5.840156316757202,-282.71484375,-355.95703125,614.2578125,-1000.0,-804.19921875
5.844062566757202,-1000.0,-1000.0,-64.453125,-865.234375,681.15234375
5.847968816757202,-381.34765625,-675.78125,-911.1328125,519.04296875,959.9609375
5.849999904632568,915.0390625,728.515625,-1000.0,-816.89453125,-586.42578125
5.853906154632568,-972.65625,-899.90234375,-250.9765625,548.828125,-1000.0
5.857812404632568,-42.48046875,-118.1640625,608.88671875,-929.19921875,-844.23828125
5.861718654632568,-1000.0,-1000.0,-33.69140625,-927.24609375,565.91796875
5.865624904632568,-650.390625,-805.17578125,-919.43359375,554.19921875,-905.76171875
5.869531154632568,758.7890625,583.984375,-1000.0,-852.05078125,-355.46875
5.873437404632568,-884.27734375,-839.35546875,-250.0,694.82421875,-1000.0
5.877343654632568,232.421875,162.59765625,646.97265625,-798.33984375,-840.33203125
5.881249904632568,-1000.0,-1000.0,77.1484375,-981.93359375,508.30078125
5.885156154632568,-831.0546875,-878.90625,-875.9765625,537.59765625,-824.70703125
5.889062404632568,627.44140625,531.25,-1000.0,-866.2109375,6.34765625
5.892968654632568,-854.00390625,-823.73046875,-489.2578125,765.625,-1000.0
5.895999908447266,330.078125,375.9765625,508.7890625,-680.6640625,-913.57421875
5.899906158447266,-966.796875,-984.86328125,292.96875,-1000.0,454.1015625
5.903812408447266,-897.94921875,-902.83203125,-772.4609375,399.4140625,-817.3828125
5.907718658447266,530.76171875,539.55078125,-1000.0,-864.2578125,125.9765625
5.911624908447266,-821.77734375,-831.54296875,-586.42578125,813.96484375,-1000.0
5.915531158447266,557.12890625,577.63671875,452.63671875,-570.80078125,-912.59765625
5.919437408447266,-919.43359375,-862.3046875,502.9296875,-1000.0,446.2890625
5.923343658447266,-929.6875,-1000.0,-672.8515625,205.56640625,-805.6640625
5.927249908447266,554.6875,454.58984375,-1000.0,-856.4453125,460.44921875
5.931156158447266,-854.00390625,-846.19140625,-615.72265625,799.31640625,-874.51171875
5.935062408447266,702.1484375,718.26171875,399.90234375,-542.96875,-1000.0
5.938968658447266,-779.78515625,-705.078125,478.515625,-1000.0,170.41015625
5.955999851226807,-1000.0,-1000.0,-644.53125,-187.98828125,-859.86328125
5.959906101226807,502.9296875,303.22265625,-1000.0,-970.21484375,763.671875
5.963812351226807,-879.39453125,-857.421875,-701.66015625,900.390625,-586.9140625
5.967718601226807,827.1484375,800.78125,294.921875,-474.12109375,-1000.0
5.971624851226807,-601.07421875,-581.0546875,565.91796875,-1000.0,-270.5078125
5.975531101226807,-1000.0,-1000.0,-524.90234375,-330.56640625,-981.93359375
5.979437351226807,412.109375,109.375,-1000.0,935.546875,780.2734375
5.983343601226807,-892.08984375,-890.13671875,-814.453125,-995.60546875,-611.81640625
5.987249851226807,896.484375,841.796875,118.1640625,-286.62109375,-1000.0
5.991156101226807,-430.6640625,-499.0234375,669.43359375,-1000.0,-420.41015625
5.995062351226807,-1000.0,-1000.0,-357.91015625,-626.46484375,969.7265625
5.998968601226807,223.14453125,-205.078125,-1000.0,754.39453125,799.8046875
6.0,-896.97265625,-991.2109375,-861.81640625,-878.41796875,-620.60546875
