Timestamp,TP9,AF7,AF8,TP10,Right AUX
0.0,-956.54296875,-1000.0,-697.265625,3.90625,-803.22265625
0.00390625,563.96484375,460.9375,-1000.0,-896.484375,436.5234375
0.0078125,-863.28125,-854.98046875,-627.44140625,814.453125,-858.88671875
0.01171875,739.74609375,753.41796875,358.3984375,-544.921875,-1000.0
0.015625,-739.2578125,-665.52734375,515.13671875,-1000.0,6.34765625
0.01953125,-1000.0,-1000.0,-602.05078125,-370.60546875,-890.625
0.0234375,505.37109375,299.8046875,-1000.0,958.984375,776.85546875
0.02734375,-878.41796875,-856.93359375,-728.02734375,936.5234375,-589.84375
0.03125,823.73046875,799.31640625,251.953125,-443.359375,-1000.0
0.03515625,-592.7734375,-568.84765625,581.0546875,-1000.0,-390.13671875
0.0390625,-1000.0,-1000.0,-450.1953125,-582.51953125,977.05078125
0.04296875,368.65234375,28.80859375,-1000.0,828.61328125,769.04296875
0.04699993133544922,-888.671875,-899.90234375,-864.74609375,-952.63671875,-627.44140625
0.05090618133544922,891.11328125,824.21875,39.0625,-310.05859375,-1000.0
0.05481243133544922,-429.6875,-530.2734375,642.08984375,-1000.0,-629.39453125
0.05871868133544922,-1000.0,-1000.0,-330.56640625,-702.1484375,856.93359375
0.06262493133544922,141.6015625,-351.5625,-1000.0,682.12890625,889.16015625
0.06653118133544922,-867.1875,980.46875,-866.69921875,-848.6328125,-597.65625
0.07043743133544922,803.7109375,883.7890625,51.7578125,-40.0390625,-1000.0
0.07434368133544922,-521.97265625,-524.4140625,638.671875,-1000.0,-707.51953125
0.07824993133544922,-1000.0,-1000.0,-258.7890625,-659.1796875,741.2109375
0.08215618133544922,-366.2109375,-661.1328125,-967.28515625,601.07421875,-975.09765625
0.08606243133544922,975.5859375,807.6171875,-968.75,-849.12109375,-420.8984375
0.08996868133544922,896.97265625,973.6328125,-295.41015625,179.6875,-1000.0
0.10499978065490723,-507.32421875,-503.90625,564.94140625,-1000.0,-759.765625
0.10890603065490723,-1000.0,-1000.0,64.453125,-865.234375,659.1796875
0.11281228065490723,-650.87890625,-813.96484375,-875.9765625,519.04296875,-906.25
0.11671853065490723,803.22265625,625.0,-1000.0,-815.4296875,-294.43359375
0.12062478065490723,-995.60546875,-940.91796875,-377.44140625,543.9453125,-1000.0
0.12453103065490723,-443.359375,-420.8984375,522.94921875,-916.50390625,-756.8359375
0.12843728065490723,-1000.0,-1000.0,213.37890625,-966.796875,616.69921875
0.13234353065490723,-787.59765625,-857.421875,-802.24609375,491.69921875,-853.515625
0.13624978065490723,632.8125,518.5546875,-1000.0,-836.42578125,-36.1328125
0.14015603065490723,-896.484375,-855.95703125,-380.37109375,659.1796875,-1000.0
0.14406228065490723,-309.5703125,-201.66015625,497.55859375,-787.59765625,-842.7734375
0.14796853065490723,-1000.0,-1000.0,311.03515625,-1000.0,518.06640625
0.14999985694885254,-832.51953125,-858.88671875,-720.21484375,373.046875,-815.91796875
0.15390610694885254,515.625,478.515625,-1000.0,-845.703125,376.46484375
0.15781235694885254,-821.77734375,-811.5234375,-419.43359375,750.9765625,-976.5625
0.16171860694885254,54.6875,174.8046875,491.2109375,-654.296875,-950.1953125
0.16562485694885254,-1000.0,-1000.0,400.390625,-1000.0,473.6328125
0.16953110694885254,-851.5625,-908.69140625,-651.3671875,203.125,-816.40625
0.17343735694885254,512.20703125,459.9609375,-1000.0,-857.91015625,430.6640625
0.17734360694885254,-814.453125,-814.453125,-615.72265625,799.31640625,-943.359375
0.18124985694885254,511.71875,547.8515625,429.6875,-542.96875,-978.02734375
0.18515610694885254,-945.3125,-869.62890625,570.3125,-1000.0,434.08203125
0.18906235694885254,-920.8984375,-1000.0,-580.078125,-194.82421875,-819.82421875
0.19296860694885254,551.26953125,376.953125,-1000.0,-951.171875,581.0546875
0.1959998607635498,-851.5625,-842.7734375,-621.58203125,837.40234375,-782.71484375
0.1999061107635498,692.87109375,734.375,381.8359375,-554.6875,-1000.0
0.2038123607635498,-758.30078125,-673.828125,597.16796875,-1000.0,76.171875
0.2077186107635498,-1000.0,-1000.0,-381.8359375,-483.3984375,-875.9765625
0.2116248607635498,395.5078125,216.30859375,-1000.0,917.96875,756.34765625
0.2155311107635498,-867.1875,-863.76953125,-726.07421875,936.5234375,-605.46875
0.2194373607635498,817.87109375,800.78125,290.52734375,-487.3046875,-1000.0
0.2233436107635498,-580.56640625,-562.01171875,666.50390625,-1000.0,-363.28125
0.2272498607635498,-1000.0,-1000.0,-125.0,-640.625,983.88671875
0.2311561107635498,263.18359375,-80.56640625,-915.52734375,781.73828125,854.00390625
0.2350623607635498,-858.3984375,-928.22265625,-863.76953125,-939.453125,-573.73046875
0.2389686107635498,806.640625,838.37890625,117.67578125,-319.82421875,-1000.0
0.24000000953674316,-556.640625,-526.85546875,683.10546875,-1000.0,-659.1796875
0.24390625953674316,-1000.0,-1000.0,-126.953125,-772.94921875,831.0546875
0.24781250953674316,3.90625,-434.08203125,-944.3359375,605.46875,909.1796875
0.25171875953674316,-896.97265625,938.4765625,-903.80859375,-842.28515625,-595.703125
0.25562500953674316,812.98828125,922.36328125,17.08984375,-33.69140625,-1000.0
0.25953125953674316,-544.43359375,-484.375,671.38671875,-1000.0,-730.46875
0.26343750953674316,-1000.0,-1000.0,-9.27734375,-846.6796875,723.6328125
0.26734375953674316,-375.48828125,-639.6484375,-883.30078125,514.16015625,-981.4453125
0.27125000953674316,942.87109375,773.4375,-960.9375,-810.05859375,-451.66015625
0.27515625953674316,964.35546875,-939.453125,-204.58984375,332.51953125,-1000.0
0.27906250953674316,-370.60546875,-252.9296875,601.5625,-1000.0,-837.40234375
0.28296875953674316,-1000.0,-1000.0,87.40234375,-891.11328125,598.6328125
0.2849998474121094,-633.7890625,-759.27734375,-865.234375,532.71484375,-936.5234375
0.2889060974121094,766.11328125,633.7890625,-1000.0,-827.63671875,-414.55078125
0.2928123474121094,-909.66796875,-859.86328125,-318.359375,591.30859375,-1000.0
0.2967185974121094,-121.09375,14.16015625,583.984375,-896.97265625,-829.58984375
0.3006248474121094,-1000.0,-1000.0,162.59765625,-936.5234375,552.24609375
0.3045310974121094,-768.5546875,-854.4921875,-837.890625,557.6171875,-856.93359375
0.3084373474121094,637.20703125,535.15625,-1000.0,-851.5625,-184.5703125
0.3123435974121094,-850.5859375,-825.1953125,-309.5703125,693.84765625,-1000.0
0.3162498474121094,89.84375,298.828125,603.515625,-758.30078125,-870.1171875
0.3201560974121094,-1000.0,-1000.0,276.85546875,-1000.0,448.73046875
0.3240623474121094,-865.72265625,-892.08984375,-764.6484375,395.5078125,-803.22265625
0.3279685974121094,522.94921875,536.1328125,-1000.0,-864.74609375,274.4140625
0.3299999237060547,-818.359375,-835.44921875,-457.03125,814.453125,-996.58203125
0.3339061737060547,387.20703125,568.84765625,477.05078125,-571.77734375,-993.1640625
0.3378124237060547,-983.88671875,-870.1171875,397.4609375,-1000.0,363.28125
0.3417186737060547,-901.3671875,-959.9609375,-695.80078125,210.9375,-797.8515625
0.3456249237060547,537.59765625,520.99609375,-1000.0,-857.91015625,348.14453125
0.3495311737060547,-828.125,-843.26171875,-575.1953125,812.01171875,-932.12890625
0.3534374237060547,629.8828125,706.0546875,469.7265625,-559.5703125,-1000.0
0.3573436737060547,-855.46875,-724.12109375,502.44140625,-1000.0,155.2734375
0.3612499237060547,-751.953125,-879.39453125,-637.6953125,55.6640625,-823.2421875
0.3651561737060547,641.11328125,460.44921875,-1000.0,-868.65234375,601.07421875
0.3690624237060547,-903.80859375,-890.13671875,-647.4609375,802.734375,-758.30078125
0.3729686737060547,779.78515625,800.78125,431.640625,-539.55078125,-1000.0
0.37599992752075195,-687.5,-611.81640625,563.4765625,-1000.0,-176.26953125
0.37990617752075195,-1000.0,-1000.0,-577.63671875,-379.8828125,-938.4765625
0.38381242752075195,398.92578125,177.24609375,-1000.0,953.125,791.015625
0.38771867752075195,-865.234375,-870.60546875,-774.90234375,943.359375,-611.328125
0.39162492752075195,812.98828125,810.05859375,162.109375,-433.59375,-1000.0
0.39553117752075195,-570.80078125,-541.50390625,589.35546875,-1000.0,-448.2421875
0.39943742752075195,-1000.0,-1000.0,-253.90625,-641.6015625,950.1953125
0.40334367752075195,207.03125,-179.6875,-955.56640625,783.69140625,869.140625
0.40724992752075195,-863.28125,-960.9375,-894.53125,-939.453125,-583.0078125
0.41115617752075195,815.91796875,860.83984375,35.64453125,-319.3359375,-1000.0
0.41506242752075195,-517.08984375,-511.23046875,686.5234375,-1000.0,-564.453125
0.41896867752075195,-1000.0,-1000.0,-91.796875,-772.94921875,890.625
0.42100000381469727,-157.2265625,-505.37109375,-943.359375,605.46875,894.53125
0.42490625381469727,-950.1953125,889.6484375,-938.96484375,-842.28515625,-589.35546875
0.42881250381469727,854.4921875,967.28515625,-34.1796875,-33.69140625,-1000.0
0.43271875381469727,-503.41796875,-423.828125,632.32421875,-1000.0,-777.34375
0.43662500381469727,-1000.0,-1000.0,-83.984375,-845.21484375,659.1796875
0.44053125381469727,-454.1015625,-679.6875,-911.62109375,512.20703125,-946.77734375
0.44443750381469727,909.66796875,737.3046875,-975.5859375,-809.5703125,-407.71484375
0.44834375381469727,982.91015625,-921.875,-243.1640625,359.375,-1000.0
0.45225000381469727,-365.234375,-235.83984375,584.47265625,-1000.0,-841.30859375
0.45615625381469727,-1000.0,-1000.0,39.0625,-894.53125,580.56640625
0.46006250381469727,-637.6953125,-802.734375,-883.7890625,536.1328125,-908.203125
0.46396875381469727,770.01953125,588.37890625,-1000.0,-834.9609375,-357.421875
0.4659998416900635,-905.76171875,-849.12109375,-365.72265625,631.34765625,-1000.0
0.4699060916900635,-199.70703125,-11.71875,560.546875,-865.234375,-844.23828125
0.4738123416900635,-1000.0,-1000.0,130.859375,-956.0546875,534.66796875
0.4777185916900635,-775.87890625,-860.83984375,-876.953125,573.2421875,-844.23828125
0.4816248416900635,602.05078125,528.80859375,-1000.0,-861.81640625,-161.1328125
0.4855310916900635,-832.51953125,-839.35546875,-205.078125,543.45703125,-1000.0
0.4894373416900635,85.44921875,201.66015625,633.7890625,-784.1796875,-776.85546875
0.4933435916900635,-1000.0,-1000.0,316.89453125,-1000.0,479.00390625
0.4972498416900635,-855.46875,-879.8828125,-719.23828125,382.32421875,-816.89453125
0.5011560916900635,516.11328125,524.4140625,-1000.0,-858.88671875,286.1328125
0.5050623416900635,-823.73046875,-831.54296875,-537.109375,813.4765625,-994.62890625
0.5089685916900635,552.24609375,590.8203125,448.2421875,-570.80078125,-1000.0
0.5249998569488525,-902.34375,-849.12109375,424.8046875,-1000.0,332.03125
0.5289061069488525,-930.17578125,-991.2109375,-661.1328125,205.078125,-800.29296875
0.5328123569488525,551.26953125,477.05078125,-1000.0,-856.4453125,418.9453125
0.5367186069488525,-844.7265625,-849.12109375,-627.9296875,799.31640625,-926.26953125
0.5406248569488525,660.64453125,722.16796875,446.77734375,-542.96875,-1000.0
0.5445311069488525,-821.77734375,-705.56640625,579.1015625,-1000.0,295.41015625
0.5484373569488525,-992.67578125,-1000.0,-596.19140625,-195.3125,-816.89453125
0.5523436069488525,506.34765625,328.61328125,-1000.0,-951.171875,592.7734375
0.5562498569488525,-862.3046875,-854.98046875,-673.828125,833.49609375,-721.19140625
0.5601561069488525,761.71875,787.59765625,397.94921875,-550.78125,-1000.0
0.5640623569488525,-679.19921875,-588.8671875,565.4296875,-1000.0,-351.5625
0.5679686069488525,-1000.0,-1000.0,-557.6171875,-567.3828125,999.51171875
0.5699999332427979,382.8125,74.21875,-1000.0,864.74609375,816.40625
0.5739061832427979,-882.8125,-896.484375,-783.203125,990.72265625,-609.375
0.5778124332427979,870.60546875,842.7734375,157.2265625,-423.828125,-1000.0
0.5817186832427979,-483.88671875,-521.484375,639.16015625,-1000.0,-628.41796875
0.5856249332427979,-1000.0,-1000.0,-234.375,-712.890625,849.12109375
0.5895311832427979,221.6796875,-112.79296875,-969.7265625,712.40234375,763.18359375
0.5934374332427979,-894.53125,-964.35546875,-795.41015625,979.00390625,-650.390625
0.5973436832427979,903.3203125,915.52734375,139.6484375,-361.81640625,-1000.0
0.6012499332427979,-350.5859375,-370.1171875,707.51953125,-1000.0,-716.30859375
0.6051561832427979,-1000.0,-1000.0,-63.96484375,-814.453125,819.82421875
0.6090624332427979,-30.2734375,-453.61328125,-937.98828125,560.546875,815.91796875
0.6129686832427979,978.515625,833.0078125,-937.5,-832.03125,-705.078125
0.6159999370574951,-939.453125,-909.66796875,15.13671875,-5.859375,-1000.0
0.6199061870574951,214.35546875,196.77734375,661.1328125,-1000.0,-887.6953125
0.6238124370574951,-1000.0,-1000.0,-173.828125,-841.30859375,626.46484375
0.6277186870574951,-184.5703125,-605.46875,-954.1015625,506.8359375,873.046875
0.6316249370574951,967.28515625,791.015625,-966.796875,-812.98828125,-722.65625
0.6355311870574951,-962.40234375,-908.69140625,-143.5546875,548.828125,-1000.0
0.6394374370574951,738.28125,741.2109375,690.4296875,-929.19921875,-919.43359375
0.6433436870574951,-895.5078125,-832.03125,-11.71875,-927.734375,564.453125
0.6472499370574951,-475.5859375,-762.6953125,-898.4375,556.640625,903.3203125
0.6511561870574951,951.66015625,794.43359375,-1000.0,-861.81640625,-714.35546875
0.6550624370574951,-991.2109375,-933.10546875,-447.75390625,736.81640625,-1000.0
0.6589686870574951,890.625,845.21484375,534.1796875,-764.16015625,-984.86328125
0.6599998474121094,-704.58984375,-685.546875,72.265625,-970.703125,419.921875
0.6639060974121094,-700.68359375,-878.41796875,-911.62109375,578.125,962.40234375
0.6678123474121094,875.9765625,715.8203125,-1000.0,-892.08984375,-667.48046875
0.6717185974121094,-958.0078125,-915.52734375,-598.6328125,842.7734375,-1000.0
0.6756248474121094,870.1171875,849.609375,411.1328125,-635.25390625,-1000.0
0.6795310974121094,-672.36328125,-639.6484375,204.58984375,-994.140625,285.15625
0.6834373474121094,-853.515625,-974.609375,-864.74609375,582.51953125,987.79296875
0.6873435974121094,748.046875,613.28125,-1000.0,-888.18359375,-650.390625
0.6912498474121094,-922.8515625,-905.76171875,-726.07421875,835.44921875,-1000.0
0.6951560974121094,851.07421875,875.48828125,177.24609375,-616.69921875,-1000.0
0.6990623474121094,-642.08984375,-583.0078125,238.76953125,-1000.0,-41.015625
0.7029685974121094,-968.75,-1000.0,-827.63671875,494.140625,950.68359375
0.7049999237060547,635.25390625,597.16796875,-1000.0,-873.53515625,-602.5390625
0.7089061737060547,-934.08203125,-923.828125,-906.25,821.2890625,-1000.0
0.7128124237060547,947.75390625,939.94140625,-69.3359375,-581.0546875,-1000.0
0.7167186737060547,-453.61328125,-451.171875,249.51171875,-1000.0,-407.71484375
0.7206249237060547,-1000.0,-1000.0,-814.453125,319.3359375,974.609375
0.7245311737060547,604.00390625,586.42578125,-1000.0,-893.06640625,-300.29296875
0.7284374237060547,-941.89453125,-939.94140625,-952.63671875,909.66796875,-1000.0
0.7323436737060547,993.65234375,988.28125,-245.1171875,-373.046875,-1000.0
0.7362499237060547,-343.26171875,-245.60546875,248.53515625,-1000.0,-625.0
0.7401561737060547,-1000.0,-1000.0,-771.484375,32.2265625,949.70703125
0.7440624237060547,617.1875,414.55078125,-1000.0,-959.9609375,172.8515625
0.7479686737060547,-964.35546875,-933.10546875,-983.3984375,991.69921875,-1000.0
0.7519998550415039,-967.28515625,-994.62890625,-338.37890625,-174.8046875,-1000.0
0.7559061050415039,-47.36328125,-8.7890625,337.40234375,-1000.0,-714.84375
0.7598123550415039,-1000.0,-1000.0,-687.01171875,-354.00390625,872.0703125
0.7637186050415039,422.8515625,104.98046875,-1000.0,897.4609375,632.32421875
0.7676248550415039,-943.84765625,-963.8671875,-985.3515625,-921.38671875,-800.78125
0.7715311050415039,-964.35546875,-976.07421875,-381.8359375,93.26171875,-1000.0
0.7754373550415039,206.54296875,271.97265625,424.8046875,-1000.0,-719.7265625
0.7793436050415039,-1000.0,-1000.0,-575.68359375,-646.484375,808.10546875
0.7832498550415039,213.37890625,-387.20703125,-1000.0,748.53515625,883.7890625
0.7871561050415039,-941.40625,903.80859375,-992.1875,-859.375,-642.578125
0.7910623550415039,-979.98046875,-920.8984375,-372.0703125,375.9765625,-1000.0
0.7949686050415039,606.4453125,495.60546875,405.76171875,-1000.0,-845.703125
0.7969999313354492,-1000.0,-1000.0,-562.01171875,-831.54296875,611.328125
0.8009061813354492,-246.58203125,-711.42578125,-1000.0,618.65234375,-986.81640625
0.8048124313354492,996.09375,770.01953125,-989.74609375,-848.6328125,-516.11328125
0.8087186813354492,-976.07421875,-890.13671875,-526.85546875,633.7890625,-1000.0
0.8126249313354492,730.95703125,598.14453125,385.7421875,-864.2578125,-853.02734375
0.8165311813354492,-905.76171875,-882.32421875,-276.3671875,-945.80078125,554.19921875
0.8204374313354492,-660.64453125,-895.5078125,-1000.0,564.453125,-896.97265625
0.8243436813354492,861.328125,625.9765625,-1000.0,-870.1171875,-344.7265625
0.8282499313354492,-940.91796875,-869.62890625,-612.3046875,764.16015625,-1000.0
0.8321561813354492,803.22265625,608.88671875,379.39453125,-734.86328125,-858.3984375
0.8360624313354492,-742.1875,-823.2421875,-100.5859375,-977.05078125,482.421875
0.8399686813354492,-893.06640625,-953.61328125,-971.19140625,579.58984375,-822.75390625
0.8549997806549072,688.96484375,561.5234375,-1000.0,-890.13671875,10.25390625
0.8589060306549072,-911.62109375,-835.44921875,-589.84375,835.44921875,-1000.0
0.8628122806549072,845.21484375,490.234375,413.57421875,-617.1875,-901.3671875
0.8667185306549072,-633.7890625,-876.953125,110.83984375,-1000.0,417.96875
0.8706247806549072,-994.140625,-1000.0,-883.7890625,494.62890625,-816.40625
0.8745310306549072,582.03125,372.0703125,-1000.0,-873.046875,602.05078125
0.8784372806549072,-890.625,-813.96484375,-643.06640625,819.82421875,-845.703125
0.8823435306549072,842.28515625,528.3203125,398.4375,-583.49609375,-1000.0
0.8862497806549072,-635.7421875,-812.01171875,329.58984375,-1000.0,427.734375
0.8901560306549072,-994.140625,-1000.0,-811.03515625,304.6875,-856.4453125
0.8940622806549072,582.03125,-155.2734375,-1000.0,-856.4453125,762.6953125
0.8979685306549072,-890.625,-921.38671875,-730.46875,803.7109375,-701.171875
0.8999998569488525,841.30859375,649.4140625,274.90234375,-552.734375,-1000.0
0.9039061069488525,-633.7890625,-756.8359375,497.55859375,-1000.0,461.42578125
0.9078123569488525,-1000.0,-1000.0,-714.35546875,-5.859375,-867.67578125
0.9117186069488525,579.1015625,-632.32421875,-1000.0,-920.41015625,798.33984375
0.9156248569488525,-898.92578125,846.6796875,-749.51171875,877.44140625,-572.265625
0.9195311069488525,877.44140625,870.1171875,271.97265625,-463.37890625,-1000.0
0.9234373569488525,-509.27734375,-658.69140625,553.7109375,-1000.0,97.16796875
0.9273436069488525,-1000.0,-1000.0,-670.41015625,-268.5546875,-890.625
0.9312498569488525,466.796875,-452.63671875,-1000.0,962.890625,798.33984375
0.9351561069488525,-952.63671875,906.73828125,-736.81640625,993.1640625,-533.69140625
0.9390623569488525,-987.3046875,898.4375,208.49609375,-282.2265625,-1000.0
0.9429686069488525,-191.89453125,-562.01171875,605.46875,-1000.0,-588.37890625
0.9459998607635498,-1000.0,-1000.0,-563.4765625,-629.8828125,878.90625
0.9499061107635498,353.02734375,-405.76171875,-1000.0,759.27734375,898.92578125
0.9538123607635498,-958.49609375,908.69140625,-836.9140625,-885.25390625,-589.35546875
0.9577186107635498,-965.8203125,994.140625,64.94140625,-80.078125,-1000.0
0.9616248607635498,378.90625,-283.203125,695.80078125,-1000.0,-765.13671875
0.9655311107635498,-1000.0,-1000.0,-347.65625,-784.66796875,723.6328125
0.9694373607635498,-10.7421875,-573.73046875,-1000.0,604.00390625,953.61328125
0.9733436107635498,-969.23828125,784.66796875,-868.1640625,-828.125,-583.984375
0.9772498607635498,-974.12109375,-899.4140625,53.7109375,165.0390625,-1000.0
0.9811561107635498,663.0859375,128.41796875,742.1875,-1000.0,-848.6328125
0.9850623607635498,-970.703125,-1000.0,-183.59375,-865.234375,589.84375
0.9889686107635498,-388.18359375,-743.1640625,-972.65625,519.04296875,-957.51953125
0.9909999370574951,957.51953125,685.05859375,-957.03125,-816.40625,-459.47265625
0.9949061870574951,-965.8203125,-865.234375,-219.23828125,548.828125,-1000.0
0.9988124370574951,760.7421875,396.484375,646.484375,-929.19921875,-853.02734375
1.0027186870574951,-858.3984375,-963.8671875,-11.71875,-927.734375,551.26953125
1.0066249370574951,-715.33203125,-892.578125,-927.24609375,552.24609375,-888.18359375
1.0105311870574951,831.54296875,578.61328125,-1000.0,-842.7734375,-314.94140625
1.0144374370574951,-938.96484375,-849.609375,-285.15625,651.3671875,-1000.0
1.0183436870574951,826.66015625,498.53515625,666.015625,-822.75390625,-855.46875
1.0222499370574951,-709.47265625,-895.99609375,280.2734375,-1000.0,513.18359375
1.0261561870574951,-890.13671875,-929.6875,-823.2421875,479.4921875,-837.890625
1.0300624370574951,699.21875,553.22265625,-1000.0,-855.95703125,-110.83984375
1.0339686870574951,-913.0859375,-846.6796875,-382.32421875,756.34765625,-1000.0
1.0649998188018799,845.703125,600.5859375,609.375,-666.50390625,-927.24609375
1.0689060688018799,-633.7890625,-831.0546875,329.58984375,-1000.0,346.6796875
1.0728123188018799,-994.140625,-975.09765625,-808.10546875,302.734375,-796.875
1.0767185688018799,582.03125,509.27734375,-1000.0,-858.3984375,434.08203125
1.0806248188018799,-891.11328125,-850.5859375,-554.19921875,804.6875,-902.83203125
1.0845310688018799,841.796875,710.44921875,495.60546875,-554.19921875,-1000.0
1.0884373188018799,-635.7421875,-732.91015625,470.21484375,-1000.0,242.1875
1.0923435688018799,-996.09375,-1000.0,-735.83984375,3.90625,-824.70703125
1.0962498188018799,589.35546875,407.71484375,-1000.0,-896.97265625,643.06640625
1.1001560688018799,-909.1796875,-861.328125,-625.48828125,813.96484375,-716.796875
1.1040623188018799,897.94921875,796.875,443.359375,-544.921875,-1000.0
1.1079685688018799,-547.36328125,-611.328125,562.98828125,-1000.0,-150.390625
1.0819997787475586,-1000.0,-1000.0,-687.98828125,-376.46484375,-918.9453125
1.0859060287475586,604.98046875,279.78515625,-1000.0,970.21484375,648.4375
1.0898122787475586,-940.4296875,-878.41796875,-666.015625,909.1796875,-713.8671875
1.0937185287475586,979.00390625,861.328125,400.390625,-506.8359375,-1000.0
1.0976247787475586,-333.0078125,-468.75,619.140625,-1000.0,-572.75390625
1.1015310287475586,-1000.0,-1000.0,-598.6328125,-474.609375,896.484375
1.1054372787475586,500.9765625,52.24609375,-1000.0,879.8828125,823.2421875
1.1093435287475586,-952.1484375,-955.078125,-754.39453125,-994.62890625,-627.9296875
1.1132497787475586,-971.19140625,970.21484375,225.5859375,-354.98046875,-1000.0
1.1171560287475586,-6.8359375,-203.125,678.22265625,-1000.0,-729.00390625
1.1210622787475586,-1000.0,-1000.0,-434.5703125,-713.37890625,781.25
1.1249685287475586,333.49609375,-240.234375,-1000.0,700.68359375,865.72265625
1.126999855041504,-948.73046875,934.5703125,-825.1953125,-887.20703125,-641.11328125
1.130906105041504,-967.28515625,-943.359375,96.19140625,-231.4453125,-1000.0
1.134812355041504,418.45703125,153.3203125,703.125,-1000.0,-766.6015625
1.138718605041504,-1000.0,-1000.0,-305.6640625,-831.0546875,740.72265625
1.142624855041504,-16.6015625,-557.6171875,-1000.0,510.7421875,916.015625
1.146531105041504,-964.84375,810.05859375,-860.83984375,-812.5,-630.859375
1.150437355041504,-984.375,-889.16015625,81.0546875,163.57421875,-1000.0
1.154343605041504,701.171875,510.7421875,768.06640625,-1000.0,-869.140625
1.158249855041504,-946.77734375,-980.95703125,-100.09765625,-865.234375,592.28515625
1.162156105041504,-462.40234375,-778.80859375,-950.1953125,519.04296875,995.60546875
1.166062355041504,938.96484375,718.26171875,-937.01171875,-816.40625,-553.22265625
1.169968605041504,-962.890625,-881.8359375,-143.06640625,548.828125,-1000.0
1.1699998378753662,780.76171875,604.98046875,657.2265625,-929.19921875,-874.51171875
1.1739060878753662,-822.265625,-857.421875,4.8828125,-927.734375,549.31640625
1.1778123378753662,-759.27734375,-921.38671875,-912.109375,552.24609375,-940.91796875
1.1817185878753662,807.12890625,597.16796875,-1000.0,-842.7734375,-438.96484375
1.1856248378753662,-938.96484375,-869.62890625,-339.84375,654.78515625,-1000.0
1.1895310878753662,852.05078125,666.9921875,645.99609375,-797.8515625,-861.328125
1.1934373378753662,-663.57421875,-781.25,357.421875,-1000.0,501.46484375
1.1973435878753662,-922.36328125,-959.47265625,-794.43359375,399.90234375,-847.65625
1.2012498378753662,672.36328125,567.87109375,-1000.0,-848.6328125,-152.34375
1.2051560878753662,-906.25,-871.58203125,-401.85546875,753.41796875,-1000.0
1.2090623378753662,844.23828125,750.9765625,574.70703125,-660.64453125,-959.9609375
1.2129685878753662,-634.27734375,-715.8203125,342.28515625,-1000.0,289.55078125
1.2159998416900635,-994.140625,-988.76953125,-793.45703125,247.0703125,-789.55078125
1.2199060916900635,582.03125,551.7578125,-1000.0,-858.88671875,290.52734375
1.2238123416900635,-890.625,-872.0703125,-530.2734375,807.12890625,-948.73046875
1.2277185916900635,841.796875,784.66796875,504.39453125,-556.15234375,-1000.0
1.2316248416900635,-635.7421875,-654.78515625,475.5859375,-1000.0,105.46875
1.2355310916900635,-996.09375,-1000.0,-710.9375,-9.765625,-830.078125
1.2394373416900635,588.8671875,417.48046875,-1000.0,-900.87890625,600.09765625
1.2433435916900635,-909.66796875,-864.2578125,-604.00390625,815.4296875,-799.31640625
1.2472498416900635,898.4375,806.640625,476.07421875,-545.41015625,-1000.0
1.2511560916900635,-547.36328125,-585.9375,592.7734375,-1000.0,70.3125
1.2550623416900635,-1000.0,-1000.0,-651.85546875,-385.7421875,-873.53515625
1.2589685916900635,603.02734375,226.5625,-1000.0,966.796875,711.9140625
1.2749998569488525,-935.05859375,-875.9765625,-691.89453125,906.25,-625.0
1.2789061069488525,964.35546875,841.30859375,435.05859375,-500.48828125,-1000.0
1.2828123569488525,-342.28515625,-489.2578125,678.22265625,-1000.0,-538.0859375
1.2867186069488525,-1000.0,-1000.0,-629.8828125,-647.4609375,910.64453125
1.2906248569488525,434.5703125,-111.328125,-1000.0,796.38671875,878.41796875
1.2945311069488525,-937.5,-963.37890625,-727.05078125,-974.12109375,-594.23828125
1.2984373569488525,-988.76953125,909.66796875,226.07421875,-399.90234375,-1000.0
1.3023436069488525,-70.3125,-396.484375,654.78515625,-1000.0,-693.84765625
1.3062498569488525,-1000.0,-1000.0,-480.95703125,-782.71484375,802.734375
1.3101561069488525,236.328125,-448.73046875,-1000.0,622.55859375,919.921875
1.3140623569488525,-945.80078125,891.11328125,-874.51171875,-871.09375,-594.23828125
1.3179686069488525,-973.14453125,-987.79296875,-4.8828125,-234.86328125,-1000.0
1.3199999332427979,293.9453125,-235.83984375,683.10546875,-1000.0,-715.33203125
1.3239061832427979,-1000.0,-1000.0,-342.28515625,-831.0546875,770.5078125
1.3278124332427979,-147.94921875,-651.85546875,-1000.0,511.23046875,951.171875
1.3317186832427979,981.4453125,747.0703125,-927.24609375,-812.5,-565.91796875
1.3356249332427979,-951.171875,-895.01953125,-111.328125,163.57421875,-1000.0
1.3395311832427979,625.9765625,28.3203125,677.24609375,-1000.0,-828.61328125
1.3434374332427979,-993.65234375,-1000.0,-91.30859375,-865.234375,585.44921875
1.3473436832427979,-486.81640625,-801.26953125,-959.9609375,519.04296875,-909.66796875
1.3512499332427979,915.0390625,614.2578125,-959.47265625,-816.40625,-354.4921875
1.3551561832427979,-948.73046875,-848.14453125,-131.34765625,547.36328125,-1000.0
1.3590624332427979,751.46484375,258.7890625,645.5078125,-924.8046875,-851.07421875
1.3629686832427979,-849.609375,-1000.0,-20.99609375,-941.40625,544.43359375
1.366999864578247,-753.41796875,-892.578125,-917.48046875,531.25,-863.76953125
1.370906114578247,805.17578125,542.48046875,-984.375,-838.8671875,-248.046875
1.374812364578247,-936.5234375,-834.47265625,-340.33203125,648.92578125,-1000.0
1.378718614578247,842.28515625,426.7578125,614.2578125,-799.8046875,-845.703125
1.382624864578247,-674.31640625,-943.359375,253.41796875,-1000.0,500.0
1.386531114578247,-927.24609375,-915.0390625,-846.19140625,385.25390625,-815.91796875
1.390437364578247,664.55078125,543.9453125,-1000.0,-846.19140625,91.30859375
1.394343614578247,-905.2734375,-838.8671875,-442.3828125,750.48828125,-1000.0
1.398249864578247,843.75,598.14453125,580.56640625,-653.80859375,-965.8203125
1.402156114578247,-634.27734375,-837.890625,344.7265625,-1000.0,337.40234375
1.406062364578247,-994.140625,-998.53515625,-803.7109375,203.125,-798.33984375
1.409968614578247,582.03125,465.8203125,-1000.0,-857.91015625,453.125
1.4099998474121094,-891.11328125,-842.7734375,-601.5625,799.31640625,-882.8125
1.4139060974121094,842.28515625,699.21875,442.87109375,-542.96875,-1000.0
1.4178123474121094,-635.7421875,-722.65625,437.01171875,-1000.0,185.05859375
1.4217185974121094,-995.60546875,-1000.0,-737.79296875,-194.82421875,-839.84375
1.4256248474121094,587.890625,294.43359375,-1000.0,-951.171875,699.70703125
1.4295310974121094,-904.296875,-857.91015625,-648.92578125,835.44921875,-705.56640625
1.4334373474121094,879.8828125,785.64453125,420.8984375,-552.734375,-1000.0
1.4373435974121094,-545.8984375,-597.16796875,615.72265625,-1000.0,62.5
1.4412498474121094,-1000.0,-1000.0,-598.6328125,-526.3671875,-880.859375
1.4451560974121094,514.6484375,70.80078125,-1000.0,899.4140625,760.7421875
1.4490623474121094,-921.875,-894.53125,-742.67578125,944.3359375,-585.44921875
1.4529685974121094,957.51953125,827.63671875,297.36328125,-491.69921875,-1000.0
1.4549999237060547,-334.9609375,-532.2265625,604.00390625,-1000.0,-542.48046875
1.4589061737060547,-1000.0,-1000.0,-605.95703125,-660.64453125,905.2734375
1.4628124237060547,360.3515625,-231.4453125,-1000.0,767.08984375,884.765625
1.4667186737060547,-925.78125,-990.72265625,-808.59375,-940.4296875,-587.40234375
1.4706249237060547,999.51171875,899.90234375,98.6328125,-333.984375,-1000.0
1.4745311737060547,-160.64453125,-453.61328125,584.9609375,-1000.0,-672.36328125
1.4784374237060547,-1000.0,-1000.0,-436.5234375,-780.76171875,821.77734375
1.4823436737060547,177.734375,-523.4375,-1000.0,618.1640625,916.015625
1.4862499237060547,-961.9140625,864.2578125,-898.92578125,-860.3515625,-593.75
1.4901561737060547,-967.7734375,-993.65234375,-50.29296875,-162.59765625,-1000.0
1.4940624237060547,229.98046875,-321.77734375,673.33984375,-1000.0,-744.140625
1.4979686737060547,-1000.0,-1000.0,-167.48046875,-839.84375,734.86328125
1.5,-189.453125,-691.89453125,-967.28515625,516.11328125,976.5625
1.50390625,962.40234375,713.37890625,-982.421875,-813.96484375,-537.59765625
1.5078125,-945.80078125,-895.5078125,-157.71484375,163.57421875,-1000.0
1.51171875,611.81640625,-88.8671875,641.6015625,-1000.0,-838.37890625
1.515625,-1000.0,-1000.0,-163.0859375,-865.234375,561.03515625
1.51953125,-633.7890625,-817.3828125,-974.609375,519.04296875,-889.16015625
1.5234375,846.6796875,576.66015625,-958.984375,-815.4296875,-299.8046875
1.52734375,-917.96875,-839.35546875,-199.70703125,543.45703125,-1000.0
1.53125,714.84375,173.33984375,645.99609375,-914.55078125,-850.5859375
1.53515625,-850.09765625,-1000.0,95.21484375,-971.6796875,541.50390625
1.5390625,-824.70703125,-878.41796875,-870.60546875,485.83984375,-855.95703125
1.54296875,731.4453125,531.73828125,-1000.0,-841.796875,-180.6640625
1.5449998378753662,-912.109375,-832.03125,-426.7578125,691.89453125,-1000.0
1.5489060878753662,812.01171875,463.37890625,569.3359375,-756.34765625,-865.234375
1.5528123378753662,-680.17578125,-928.22265625,286.62109375,-1000.0,487.3046875
1.5567185878753662,-986.328125,-919.921875,-830.56640625,375.0,-812.98828125
1.5606248378753662,581.0546875,549.31640625,-1000.0,-863.76953125,97.16796875
1.5645310878753662,-892.08984375,-853.515625,-441.89453125,814.94140625,-1000.0
1.5684373378753662,841.796875,687.01171875,603.02734375,-571.77734375,-985.3515625
1.5723435878753662,-635.7421875,-764.16015625,397.4609375,-1000.0,294.43359375
1.5762498378753662,-994.140625,-1000.0,-780.76171875,205.56640625,-793.9453125
1.5801560878753662,582.51953125,483.3984375,-1000.0,-856.4453125,449.70703125
1.5840623378753662,-891.11328125,-858.88671875,-576.66015625,799.31640625,-879.39453125
1.5879685878753662,841.796875,761.23046875,479.98046875,-542.96875,-1000.0
1.6049997806549072,-635.7421875,-662.109375,516.11328125,-1000.0,97.16796875
1.6089060306549072,-995.60546875,-1000.0,-709.9609375,-195.3125,-845.21484375
1.6128122806549072,586.9140625,330.078125,-1000.0,-951.171875,653.80859375
1.6167185306549072,-895.99609375,-855.46875,-666.50390625,843.26171875,-731.93359375
1.6206247806549072,865.72265625,795.8984375,385.25390625,-561.03515625,-1000.0
1.6245310306549072,-547.36328125,-573.73046875,591.30859375,-1000.0,-120.60546875
1.6284372806549072,-979.4921875,-1000.0,-615.234375,-377.44140625,-927.734375
1.6323435306549072,514.6484375,88.8671875,-1000.0,954.58984375,804.6875
1.6362497806549072,-927.24609375,-905.2734375,-711.42578125,918.45703125,-570.80078125
1.6401560306549072,945.3125,845.21484375,316.40625,-481.93359375,-1000.0
1.6440622806549072,-377.44140625,-500.48828125,625.48828125,-1000.0,-579.58984375
1.6479685306549072,-1000.0,-1000.0,-543.45703125,-708.49609375,884.765625
1.6509997844696045,332.03125,-274.4140625,-1000.0,719.7265625,893.06640625
1.6549060344696045,-920.8984375,988.28125,-717.7734375,-923.828125,-587.40234375
1.6588122844696045,984.375,920.8984375,275.87890625,-326.171875,-1000.0
1.6627185344696045,-177.24609375,-421.875,656.73828125,-1000.0,-719.23828125
1.6666247844696045,-1000.0,-1000.0,-365.234375,-796.875,776.3671875
1.6705310344696045,46.875,-551.26953125,-1000.0,574.70703125,932.12890625
1.6744372844696045,-989.74609375,836.42578125,-909.1796875,-836.9140625,-592.28515625
1.6783435344696045,-961.42578125,-963.37890625,-62.01171875,-34.66796875,-1000.0
1.6822497844696045,232.91015625,-230.95703125,671.38671875,-1000.0,-796.875
1.6861560344696045,-1000.0,-1000.0,-114.2578125,-845.21484375,674.31640625
1.6900622844696045,-381.8359375,-704.1015625,-945.80078125,512.6953125,993.65234375
1.6939685344696045,895.01953125,698.73046875,-994.62890625,-809.08203125,-531.73828125
1.6949999332427979,-916.9921875,-879.39453125,-161.1328125,358.88671875,-1000.0
1.6989061832427979,595.21484375,30.76171875,651.85546875,-1000.0,-849.609375
1.7028124332427979,-986.81640625,-1000.0,-93.26171875,-900.390625,550.78125
1.7067186832427979,-704.58984375,-831.0546875,-951.171875,541.50390625,-888.671875
1.7106249332427979,792.96875,573.73046875,-991.69921875,-831.0546875,-318.359375
1.7145311832427979,-904.296875,-852.05078125,-177.24609375,503.41796875,-1000.0
1.7184374332427979,714.84375,285.15625,680.6640625,-897.94921875,-841.796875
1.7223436832427979,-834.47265625,-1000.0,121.09375,-980.95703125,506.8359375
1.7262499332427979,-856.93359375,-895.99609375,-857.91015625,464.35546875,-824.70703125
1.7301561832427979,700.1953125,540.0390625,-1000.0,-841.30859375,33.203125
1.7340624332427979,-908.69140625,-842.28515625,-414.0625,708.0078125,-1000.0
1.7379686832427979,821.2890625,553.7109375,578.125,-726.07421875,-916.015625
1.7400000095367432,-666.50390625,-869.62890625,331.0546875,-1000.0,459.47265625
1.7439062595367432,-988.76953125,-935.546875,-811.5234375,325.1953125,-813.4765625
1.7478125095367432,581.0546875,557.6171875,-1000.0,-861.328125,113.76953125
1.7517187595367432,-891.6015625,-861.328125,-488.76953125,812.98828125,-1000.0
1.7556250095367432,841.796875,726.5625,535.64453125,-568.359375,-980.46875
1.7595312595367432,-635.7421875,-730.95703125,461.9140625,-1000.0,307.12890625
1.7634375095367432,-994.140625,-1000.0,-735.3515625,149.90234375,-795.8984375
1.7673437595367432,582.03125,480.95703125,-1000.0,-868.1640625,485.83984375
1.7712500095367432,-891.11328125,-863.28125,-476.07421875,806.15234375,-847.16796875
1.7751562595367432,841.796875,781.25,502.44140625,-546.875,-1000.0
1.7790625095367432,-635.7421875,-639.16015625,477.5390625,-1000.0,20.5078125
1.7829687595367432,-996.09375,-1000.0,-679.6875,-195.3125,-863.28125
1.7849998474121094,589.35546875,325.68359375,-1000.0,-951.171875,645.5078125
1.7889060974121094,-905.2734375,-862.3046875,-685.546875,833.49609375,-725.09765625
1.7928123474121094,884.27734375,817.3828125,349.12109375,-550.78125,-1000.0
1.7967185974121094,-511.71875,-554.19921875,608.88671875,-1000.0,-263.671875
1.8006248474121094,-1000.0,-1000.0,-578.61328125,-565.91796875,-969.23828125
1.8045310974121094,426.7578125,124.51171875,-1000.0,861.328125,824.21875
1.8084373474121094,-911.1328125,-883.7890625,-728.515625,999.51171875,-593.26171875
1.8123435974121094,949.21875,846.19140625,309.08203125,-407.2265625,-1000.0
1.8162498474121094,-329.1015625,-468.26171875,718.75,-1000.0,-456.0546875
1.8201560974121094,-1000.0,-1000.0,-455.078125,-715.8203125,944.82421875
1.8240623474121094,266.11328125,-290.52734375,-1000.0,707.51953125,857.421875
1.8279685974121094,-919.43359375,981.93359375,-798.33984375,-905.2734375,-584.47265625
1.8309998512268066,984.375,927.734375,81.54296875,-285.15625,-1000.0
1.8349061012268066,-174.31640625,-411.62109375,646.97265625,-1000.0,-732.91015625
1.8388123512268066,-1000.0,-1000.0,-332.51953125,-844.7265625,764.16015625
1.8427186012268066,-25.87890625,-570.3125,-1000.0,531.25,935.05859375
1.8466248512268066,990.234375,826.66015625,-919.921875,-830.56640625,-593.75
1.8505311012268066,-951.66015625,880.37109375,64.94140625,-135.7421875,-1000.0
1.8544373512268066,228.02734375,-326.171875,708.0078125,-1000.0,-795.8984375
1.8583436012268066,-1000.0,-1000.0,-238.28125,-829.1015625,660.64453125
1.8622498512268066,-388.18359375,-743.65234375,-968.26171875,504.39453125,-980.95703125
1.8661561012268066,895.99609375,684.08203125,-998.53515625,-806.640625,-484.375
1.8700623512268066,-915.0390625,-880.37109375,-184.5703125,358.88671875,-1000.0
1.8739686012268066,537.59765625,-74.70703125,690.91796875,-1000.0,-844.7265625
1.875999927520752,-1000.0,-1000.0,-69.3359375,-894.53125,545.41015625
1.879906177520752,-707.03125,-839.35546875,-939.453125,536.1328125,-872.0703125
1.883812427520752,776.3671875,549.8046875,-1000.0,-833.0078125,-251.953125
1.887718677520752,-887.6953125,-831.54296875,-348.14453125,625.0,-1000.0
1.891624927520752,652.34375,175.29296875,586.42578125,-847.16796875,-834.9609375
1.895531177520752,-878.41796875,-1000.0,156.73828125,-1000.0,510.7421875
1.899437427520752,-885.7421875,-877.44140625,-858.88671875,477.5390625,-814.94140625
1.903343677520752,650.390625,529.78515625,-1000.0,-855.95703125,145.01953125
1.907249927520752,-887.20703125,-826.171875,-444.82421875,756.34765625,-1000.0
1.911156177520752,732.91015625,454.58984375,552.24609375,-666.50390625,-928.7109375
1.915062427520752,-738.28125,-939.453125,391.6015625,-1000.0,447.75390625
1.918968677520752,-972.16796875,-928.7109375,-767.578125,302.734375,-805.17578125
1.934999942779541,575.1953125,527.34375,-1000.0,-858.3984375,263.18359375
1.938906192779541,-885.7421875,-843.26171875,-497.0703125,804.6875,-988.76953125
1.942812442779541,814.94140625,658.203125,531.25,-554.19921875,-1000.0
1.946718692779541,-660.64453125,-783.69140625,428.22265625,-1000.0,294.43359375
1.950624942779541,-987.79296875,-1000.0,-742.1875,3.90625,-808.10546875
1.954531192779541,579.1015625,423.33984375,-1000.0,-896.97265625,582.51953125
1.958437442779541,-884.765625,-853.515625,-516.11328125,816.89453125,-790.0390625
1.962343692779541,821.2890625,760.7421875,478.02734375,-548.33984375,-1000.0
1.966249942779541,-644.04296875,-652.34375,511.71875,-1000.0,50.78125
1.970156192779541,-1000.0,-1000.0,-641.6015625,-326.171875,-871.09375
1.974062442779541,524.90234375,268.5546875,-1000.0,-997.0703125,721.19140625
1.977968692779541,-888.18359375,-859.375,-714.84375,854.00390625,-654.296875
1.9809999465942383,852.5390625,801.26953125,310.05859375,-561.03515625,-1000.0
1.9849061965942383,-555.6640625,-561.5234375,617.1875,-1000.0,-315.91796875
1.9888124465942383,-1000.0,-1000.0,-552.24609375,-576.66015625,-995.1171875
1.9927186965942383,398.92578125,-24.4140625,-1000.0,852.5390625,842.7734375
1.9966249465942383,-898.4375,-917.96875,-740.72265625,-997.0703125,-577.63671875
2.0005311965942383,918.9453125,845.21484375,261.71875,-405.76171875,-1000.0
2.0044374465942383,-390.625,-504.39453125,678.7109375,-1000.0,-575.1953125
2.0083436965942383,-1000.0,-1000.0,-371.58203125,-711.42578125,884.765625
2.0122499465942383,230.46875,-382.32421875,-1000.0,698.73046875,890.13671875
2.0161561965942383,-913.57421875,951.171875,-842.7734375,-886.71875,-588.8671875
2.0200624465942383,954.58984375,931.640625,24.4140625,-230.95703125,-1000.0
2.0239686965942383,-204.1015625,-440.4296875,636.23046875,-1000.0,-728.02734375
2.0249998569488525,-1000.0,-1000.0,-254.39453125,-831.0546875,741.69921875
2.0289061069488525,-160.15625,-619.140625,-972.65625,511.23046875,989.74609375
2.0328123569488525,970.21484375,795.41015625,-950.68359375,-807.12890625,-501.46484375
2.0367186069488525,-975.09765625,-951.66015625,-165.52734375,156.73828125,-1000.0
2.0406248569488525,121.58203125,-269.04296875,614.2578125,-1000.0,-812.98828125
2.0445311069488525,-1000.0,-1000.0,-131.8359375,-767.578125,626.953125
2.0484373569488525,-578.61328125,-747.0703125,-943.84765625,554.6875,-946.2890625
2.0523436069488525,828.125,655.76171875,-1000.0,-832.03125,-421.875
2.0562498569488525,-907.2265625,-870.1171875,-240.72265625,510.7421875,-1000.0
2.0601561069488525,319.3359375,-49.8046875,657.71484375,-952.1484375,-818.359375
2.0640623569488525,-1000.0,-1000.0,-3.41796875,-919.921875,576.66015625
2.0679686069488525,-767.08984375,-845.21484375,-921.38671875,548.33984375,-872.55859375
2.069999933242798,703.61328125,539.0625,-1000.0,-839.35546875,-231.4453125
2.073906183242798,-874.51171875,-827.1484375,-395.5078125,640.625,-1000.0
2.077812433242798,477.5390625,232.91015625,555.6640625,-824.21875,-859.86328125
2.081718683242798,-916.9921875,-1000.0,144.53125,-1000.0,502.44140625
2.085624933242798,-901.3671875,-883.7890625,-877.9296875,459.9609375,-827.1484375
2.089531183242798,583.49609375,532.2265625,-1000.0,-852.5390625,1.46484375
2.093437433242798,-865.234375,-831.0546875,-316.40625,561.03515625,-1000.0
2.097343683242798,680.6640625,518.5546875,595.703125,-743.1640625,-922.36328125
2.101249933242798,-779.296875,-902.83203125,418.45703125,-1000.0,415.52734375
2.105156183242798,-960.9375,-944.3359375,-681.640625,286.62109375,-799.31640625
2.109062433242798,568.84765625,527.34375,-1000.0,-853.02734375,254.39453125
2.112968683242798,-874.51171875,-851.07421875,-565.4296875,804.6875,-982.91015625
2.117999792098999,770.99609375,701.66015625,485.3515625,-554.19921875,-1000.0
2.121906042098999,-705.56640625,-744.62890625,429.6875,-1000.0,238.28125
2.125812292098999,-990.234375,-1000.0,-721.19140625,4.39453125,-800.29296875
2.129718542098999,584.9609375,430.17578125,-1000.0,-896.484375,564.94140625
2.133624792098999,-865.72265625,-848.6328125,-645.01953125,813.4765625,-808.10546875
2.137531042098999,492.67578125,488.76953125,408.69140625,-544.43359375,-935.546875
2.141437292098999,-810.546875,-750.9765625,542.48046875,-1000.0,118.65234375
2.145343542098999,-988.76953125,-1000.0,-619.62890625,-383.7890625,-914.0625
2.149249792098999,474.609375,218.26171875,-1000.0,961.9140625,748.046875
2.153156042098999,-881.8359375,-856.93359375,-741.69921875,919.43359375,-641.11328125
2.157062292098999,865.234375,812.98828125,262.6953125,-479.4921875,-1000.0
2.160968542098999,-512.20703125,-541.9921875,625.9765625,-1000.0,-412.59765625
2.1599998474121094,-1000.0,-1000.0,-523.4375,-635.7421875,968.75
2.1639060974121094,322.75390625,-65.91796875,-1000.0,795.8984375,833.49609375
2.1678123474121094,-900.87890625,-934.5703125,-802.734375,-958.49609375,-597.65625
2.1717185974121094,931.15234375,864.2578125,139.16015625,-356.4453125,-1000.0
2.1756248474121094,-332.03125,-477.5390625,665.52734375,-1000.0,-658.203125
2.1795310974121094,-1000.0,-1000.0,-268.5546875,-743.1640625,832.51953125
2.1834373474121094,65.4296875,-413.57421875,-1000.0,669.43359375,912.59765625
2.1873435974121094,-940.91796875,929.19921875,-807.6171875,-879.8828125,-594.7265625
2.1912498474121094,964.84375,958.984375,173.828125,-231.4453125,-1000.0
2.1951560974121094,-230.46875,-384.765625,652.34375,-1000.0,-768.5546875
2.1990623474121094,-1000.0,-1000.0,-242.1875,-831.0546875,719.23828125
2.2029685974121094,-220.703125,-637.6953125,-968.75,511.23046875,955.078125
2.2059998512268066,943.359375,772.4609375,-959.47265625,-812.5,-581.0546875
2.2099061012268066,-958.49609375,-928.22265625,-137.20703125,163.57421875,-1000.0
2.2138123512268066,152.83203125,-177.24609375,641.11328125,-1000.0,-827.63671875
2.2177186012268066,-1000.0,-1000.0,-35.15625,-865.234375,601.5625
2.2216248512268066,-577.1484375,-770.99609375,-912.59765625,519.04296875,-935.05859375
2.2255311012268066,823.2421875,631.8359375,-997.55859375,-816.89453125,-410.15625
2.2294373512268066,-904.296875,-858.88671875,-236.81640625,548.828125,-1000.0
2.2333436012268066,435.05859375,49.31640625,615.234375,-929.19921875,-846.19140625
2.2372498512268066,-992.1875,-1000.0,0.48828125,-927.24609375,539.55078125
2.2411561012268066,-786.1328125,-859.86328125,-919.43359375,554.6875,-860.83984375
2.2450623512268066,715.8203125,536.1328125,-1000.0,-851.07421875,-212.40234375
2.2489686012268066,-885.7421875,-827.1484375,-329.58984375,693.84765625,-1000.0
2.25,500.48828125,317.87109375,572.75390625,-758.30078125,-872.55859375
2.25390625,-877.9296875,-1000.0,176.26953125,-1000.0,480.46875
2.2578125,-930.17578125,-895.99609375,-844.7265625,393.5546875,-819.82421875
2.26171875,555.17578125,538.57421875,-1000.0,-858.3984375,30.76171875
2.265625,-865.234375,-837.890625,-485.83984375,792.96875,-1000.0
2.26953125,727.05078125,575.1953125,513.18359375,-606.93359375,-939.453125
2.2734375,-741.2109375,-860.83984375,436.5234375,-1000.0,387.6953125
2.27734375,-968.75,-962.890625,-681.640625,237.3046875,-795.8984375
2.28125,569.3359375,519.53125,-1000.0,-857.91015625,284.1796875
2.28515625,-871.09375,-853.515625,-592.28515625,807.12890625,-961.42578125
2.2890625,760.7421875,719.7265625,470.703125,-555.17578125,-1000.0
2.29296875,-721.6796875,-718.75,441.89453125,-1000.0,176.26953125
2.2960000038146973,-975.09765625,-1000.0,-717.28515625,-26.85546875,-818.84765625
2.2999062538146973,574.70703125,387.20703125,-1000.0,-904.78515625,584.9609375
2.3038125038146973,-880.37109375,-856.4453125,-673.828125,817.87109375,-769.53125
2.3077187538146973,801.7578125,784.66796875,366.2109375,-546.38671875,-1000.0
2.3116250038146973,-654.78515625,-608.88671875,550.29296875,-1000.0,-124.0234375
2.3155312538146973,-1000.0,-1000.0,-594.23828125,-383.7890625,-926.7578125
2.3194375038146973,480.95703125,187.5,-1000.0,961.9140625,793.45703125
2.3233437538146973,-888.671875,-870.60546875,-727.05078125,919.43359375,-596.6796875
2.3272500038146973,868.65234375,813.4765625,221.6796875,-479.4921875,-1000.0
2.3311562538146973,-507.8125,-537.59765625,642.08984375,-1000.0,-441.40625
2.3350625038146973,-1000.0,-1000.0,-305.6640625,-640.625,954.58984375
2.3389687538146973,321.2890625,-151.3671875,-1000.0,782.2265625,836.42578125
2.3549997806549072,-895.5078125,-955.078125,-846.6796875,-939.453125,-597.65625
2.3589060306549072,913.0859375,863.28125,131.34765625,-319.82421875,-1000.0
2.3628122806549072,-348.6328125,-498.53515625,648.92578125,-1000.0,-666.9921875
2.3667185306549072,-1000.0,-1000.0,-325.68359375,-776.85546875,826.66015625
2.3706247806549072,21.484375,-492.1875,-1000.0,611.328125,914.0625
2.3745310306549072,-939.94140625,898.92578125,-858.3984375,-850.09765625,-594.23828125
2.3784372806549072,939.453125,961.42578125,21.484375,-90.8203125,-1000.0
2.3823435306549072,-271.484375,-431.640625,657.71484375,-1000.0,-748.046875
2.3862497806549072,-1000.0,-1000.0,-154.78515625,-847.16796875,731.93359375
2.3901560306549072,-357.421875,-675.29296875,-938.4765625,519.53125,968.75
2.3940622806549072,908.69140625,744.140625,-981.93359375,-813.96484375,-549.8046875
2.3979685306549072,-967.28515625,-927.734375,-233.88671875,191.89453125,-1000.0
2.4009997844696045,61.03515625,-253.90625,612.3046875,-1000.0,-825.1953125
2.4049060344696045,-1000.0,-1000.0,46.38671875,-869.62890625,596.6796875
2.4088122844696045,-673.33984375,-798.828125,-881.34765625,520.99609375,-922.36328125
2.4127185344696045,781.25,594.23828125,-1000.0,-817.3828125,-380.37109375
2.4166247844696045,-909.66796875,-852.5390625,-311.03515625,548.828125,-1000.0
2.4205310344696045,107.91015625,-39.55078125,597.16796875,-929.19921875,-843.75
2.4244372844696045,-1000.0,-1000.0,124.51171875,-927.24609375,534.1796875
2.4283435344696045,-810.05859375,-853.515625,-871.58203125,554.6875,-852.05078125
2.4322497844696045,633.30078125,521.484375,-1000.0,-851.07421875,-153.3203125
2.4361560344696045,-855.95703125,-819.3359375,-306.640625,693.84765625,-1000.0
2.4400622844696045,275.87890625,272.94921875,606.93359375,-758.30078125,-868.1640625
2.4439685344696045,-990.72265625,-1000.0,235.3515625,-1000.0,493.1640625
2.444999933242798,-890.13671875,-886.71875,-809.08203125,395.5078125,-817.3828125
2.448906183242798,531.73828125,531.73828125,-1000.0,-864.74609375,81.0546875
2.452812433242798,-835.9375,-830.078125,-537.109375,813.96484375,-1000.0
2.456718683242798,619.140625,561.03515625,476.5625,-570.80078125,-951.171875
2.460624933242798,-852.5390625,-875.48828125,437.98828125,-1000.0,364.74609375
2.464531183242798,-943.84765625,-979.98046875,-712.890625,205.078125,-801.26953125
2.468437433242798,558.59375,483.3984375,-1000.0,-856.93359375,431.15234375
2.472343683242798,-856.93359375,-848.6328125,-575.68359375,800.78125,-924.31640625
2.476249933242798,711.42578125,715.8203125,483.3984375,-544.921875,-1000.0
2.480156183242798,-787.109375,-718.26171875,569.82421875,-1000.0,336.42578125
2.484062433242798,-964.84375,-1000.0,-648.4375,-170.8984375,-819.82421875
2.487968683242798,574.70703125,354.4921875,-1000.0,-944.82421875,615.72265625
2.490000009536743,-884.27734375,-857.91015625,-665.52734375,835.44921875,-717.7734375
2.493906259536743,812.5,793.9453125,337.40234375,-554.19921875,-1000.0
2.497812509536743,-618.65234375,-591.30859375,536.62109375,-1000.0,-208.984375
2.501718759536743,-1000.0,-1000.0,-584.9609375,-450.1953125,-950.1953125
2.505625009536743,407.71484375,143.5546875,-1000.0,927.24609375,791.015625
2.509531259536743,-882.8125,-877.9296875,-739.74609375,943.359375,-608.88671875
2.513437509536743,871.09375,819.82421875,229.98046875,-460.9375,-1000.0
2.517343759536743,-486.81640625,-529.78515625,651.3671875,-1000.0,-516.6015625
2.521250009536743,-1000.0,-1000.0,-251.46484375,-641.11328125,918.9453125
2.525156259536743,244.140625,-197.265625,-979.4921875,783.203125,854.4921875
2.529062509536743,-891.6015625,-976.07421875,-873.046875,-939.453125,-600.5859375
2.532968759536743,895.99609375,888.671875,89.84375,-319.82421875,-1000.0
2.5349998474121094,-364.74609375,-463.8671875,658.69140625,-1000.0,-703.125
2.5389060974121094,-1000.0,-1000.0,-270.99609375,-772.94921875,795.8984375
2.5428123474121094,-26.85546875,-507.8125,-991.69921875,605.46875,922.36328125
2.5467185974121094,-954.58984375,874.0234375,-897.4609375,-842.28515625,-599.12109375
2.5506248474121094,936.03515625,999.51171875,-53.22265625,-33.69140625,-1000.0
2.5545310974121094,-212.40234375,-333.49609375,651.3671875,-1000.0,-776.3671875
2.5584373474121094,-1000.0,-1000.0,-94.7265625,-845.21484375,662.109375
2.5623435974121094,-365.72265625,-680.6640625,-919.921875,512.6953125,-951.66015625
2.5662498474121094,906.25,725.5859375,-956.0546875,-809.08203125,-416.9921875
2.5701560974121094,-955.56640625,-899.4140625,-237.3046875,358.88671875,-1000.0
2.5740623474121094,145.5078125,-107.91015625,585.44921875,-1000.0,-841.30859375
2.5779685974121094,-1000.0,-1000.0,1.953125,-895.01953125,583.49609375
2.5809998512268066,-667.96875,-810.05859375,-905.76171875,535.64453125,-915.0390625
2.5849061012268066,763.671875,583.984375,-1000.0,-832.51953125,-371.58203125
2.5888123512268066,-883.30078125,-840.8203125,-333.0078125,619.140625,-1000.0
2.5927186012268066,369.140625,144.53125,581.54296875,-861.81640625,-843.26171875
2.5966248512268066,-998.046875,-1000.0,63.4765625,-975.5859375,529.296875
2.6005311012268066,-847.65625,-875.48828125,-893.5546875,512.20703125,-844.7265625
2.6044373512268066,634.27734375,530.2734375,-1000.0,-852.5390625,-125.9765625
2.6083436012268066,-863.76953125,-826.66015625,-388.671875,722.16796875,-1000.0
2.6122498512268066,462.890625,408.69140625,550.29296875,-728.515625,-888.671875
2.6161561012268066,-896.97265625,-962.890625,287.59765625,-1000.0,425.78125
2.6200623512268066,-923.828125,-908.69140625,-780.76171875,395.01953125,-800.78125
2.6239686012268066,551.7578125,544.43359375,-1000.0,-864.2578125,328.61328125
2.625,-861.81640625,-843.75,-531.73828125,813.96484375,-975.5859375
2.62890625,706.54296875,640.13671875,475.09765625,-571.2890625,-999.51171875
2.6328125,-750.9765625,-809.08203125,442.3828125,-1000.0,355.95703125
2.63671875,-967.7734375,-1000.0,-719.7265625,205.078125,-799.31640625
2.640625,568.359375,484.86328125,-1000.0,-856.93359375,473.6328125
2.64453125,-857.421875,-856.93359375,-567.3828125,799.31640625,-893.06640625
2.6484375,611.81640625,648.92578125,491.69921875,-542.96875,-954.1015625
2.65234375,-824.21875,-711.42578125,591.30859375,-1000.0,333.984375
2.65625,-949.21875,-1000.0,-628.41796875,-195.3125,-836.42578125
2.66015625,568.84765625,323.73046875,-1000.0,-951.171875,612.79296875
2.6640625,-885.7421875,-855.46875,-614.74609375,833.49609375,-714.84375
2.66796875,827.1484375,798.828125,364.74609375,-550.78125,-1000.0
2.669999837875366,-598.6328125,-576.66015625,532.2265625,-1000.0,-325.1953125
2.673906087875366,-1000.0,-1000.0,-582.51953125,-565.91796875,-993.1640625
2.677812337875366,409.1796875,86.42578125,-1000.0,860.83984375,797.8515625
2.681718587875366,-884.765625,-892.08984375,-773.4375,-999.51171875,-615.234375
2.685624837875366,876.46484375,832.03125,166.9921875,-404.296875,-1000.0
2.689531087875366,-469.23828125,-514.16015625,666.50390625,-1000.0,-517.08984375
2.693437337875366,-1000.0,-1000.0,-202.1484375,-697.265625,917.96875
2.697343587875366,220.21484375,-260.7421875,-964.35546875,719.23828125,863.76953125
2.701249837875366,-890.13671875,998.53515625,-893.5546875,-901.85546875,-594.7265625
2.705156087875366,889.16015625,906.25,58.10546875,-256.34765625,-1000.0
2.709062337875366,-353.515625,-446.2890625,663.0859375,-1000.0,-720.703125
2.712968587875366,-1000.0,-1000.0,-249.0234375,-792.96875,777.34375
2.7159998416900635,-168.9453125,-555.17578125,-981.93359375,582.51953125,929.19921875
2.7199060916900635,989.2578125,842.7734375,-924.8046875,-834.9609375,-598.6328125
2.7238123416900635,982.421875,-977.5390625,-93.26171875,2.44140625,-1000.0
2.7277185916900635,-108.88671875,-294.43359375,632.32421875,-1000.0,-811.5234375
2.7316248416900635,-1000.0,-1000.0,-126.46484375,-859.86328125,640.625
2.7355310916900635,-512.6953125,-705.078125,-943.84765625,525.390625,-975.09765625
2.7394373416900635,853.02734375,699.70703125,-860.3515625,-808.59375,-479.4921875
2.7433435916900635,966.30859375,986.81640625,-27.34375,163.0859375,-1000.0
2.7472498416900635,87.40234375,-145.01953125,657.2265625,-1000.0,-840.33203125
2.7511560916900635,-1000.0,-1000.0,55.6640625,-861.328125,566.40625
2.7550623416900635,-694.3359375,-835.9375,-869.62890625,520.01953125,-893.06640625
2.7589685916900635,763.671875,566.89453125,-1000.0,-827.63671875,-320.3125
2.7749998569488525,-895.99609375,-834.47265625,-305.6640625,624.51171875,-1000.0
2.7789061069488525,309.5703125,157.71484375,643.5546875,-847.16796875,-837.40234375
2.7828123569488525,-989.74609375,-1000.0,268.06640625,-1000.0,539.0625
2.7867186069488525,-840.33203125,-874.51171875,-814.453125,477.5390625,-843.75
2.7906248569488525,628.41796875,528.80859375,-1000.0,-856.4453125,-110.83984375
2.7945311069488525,-866.69921875,-827.1484375,-399.4140625,757.32421875,-1000.0
2.7984373569488525,541.50390625,458.49609375,564.94140625,-668.9453125,-897.4609375
2.8023436069488525,-848.6328125,-938.4765625,315.91796875,-1000.0,410.15625
2.8062498569488525,-937.01171875,-922.36328125,-774.4140625,316.40625,-796.875
2.8101561069488525,558.10546875,539.55078125,-1000.0,-859.86328125,357.421875
2.8140623569488525,-865.234375,-841.30859375,-565.91796875,813.4765625,-963.37890625
2.8179686069488525,750.48828125,657.71484375,445.3125,-567.87109375,-1000.0
2.82099986076355,-710.9375,-783.69140625,474.609375,-1000.0,333.0078125
2.82490611076355,-874.0234375,-923.828125,-688.96484375,157.71484375,-804.6875
2.82881236076355,602.05078125,489.2578125,-1000.0,-860.3515625,502.44140625
2.83271861076355,-878.41796875,-871.09375,-631.34765625,803.22265625,-847.65625
2.83662486076355,745.1171875,763.18359375,425.29296875,-545.8984375,-1000.0
2.84053111076355,-742.1875,-664.0625,562.01171875,-1000.0,112.3046875
2.84443736076355,-1000.0,-1000.0,-604.98046875,-195.3125,-858.3984375
2.84834361076355,498.53515625,292.48046875,-1000.0,-951.171875,717.7734375
2.85224986076355,-877.44140625,-856.93359375,-615.234375,833.49609375,-641.11328125
2.85615611076355,822.265625,798.33984375,455.078125,-550.78125,-1000.0
2.86006236076355,-590.33203125,-566.89453125,592.7734375,-1000.0,-359.86328125
2.86396861076355,-1000.0,-1000.0,-570.80078125,-565.91796875,991.2109375
2.865000009536743,356.93359375,7.8125,-1000.0,860.3515625,835.9375
2.868906259536743,-895.5078125,-908.203125,-802.734375,-999.51171875,-597.65625
2.872812509536743,913.57421875,836.42578125,101.5625,-404.78515625,-1000.0
2.876718759536743,-402.34375,-515.13671875,644.04296875,-1000.0,-566.89453125
2.880625009536743,-1000.0,-1000.0,-263.18359375,-711.42578125,891.6015625
2.884531259536743,203.125,-349.12109375,-991.2109375,698.2421875,895.5078125
2.888437509536743,-885.7421875,969.7265625,-867.67578125,-887.20703125,-583.49609375
2.892343759536743,874.51171875,912.109375,76.66015625,-230.95703125,-1000.0
2.896250009536743,-373.046875,-468.75,688.4765625,-1000.0,-656.25
2.900156259536743,-1000.0,-1000.0,-222.16796875,-831.0546875,822.265625
2.904062509536743,-169.43359375,-601.07421875,-980.46875,511.23046875,922.8515625
2.907968759536743,987.79296875,813.96484375,-938.4765625,-812.5,-584.47265625
2.9099998474121094,986.328125,-969.23828125,-116.2109375,161.62109375,-1000.0
2.9139060974121094,-101.07421875,-314.453125,611.328125,-1000.0,-817.87109375
2.9178123474121094,-1000.0,-1000.0,-126.953125,-868.65234375,630.37109375
2.9217185974121094,-563.96484375,-739.2578125,-935.546875,521.97265625,-968.75
2.9256248474121094,829.58984375,670.8984375,-1000.0,-815.4296875,-470.703125
2.9295310974121094,-924.31640625,-880.37109375,-247.0703125,468.26171875,-1000.0
2.9334373474121094,130.859375,-143.06640625,574.21875,-964.35546875,-841.796875
2.9373435974121094,-1000.0,-1000.0,48.828125,-913.57421875,558.10546875
2.9412498474121094,-754.39453125,-832.03125,-853.02734375,544.43359375,-883.30078125
2.9451560974121094,707.51953125,540.52734375,-1000.0,-835.44921875,-290.52734375
2.9490623474121094,-884.765625,-828.125,-374.51171875,624.51171875,-1000.0
2.9529685974121094,243.1640625,171.875,585.9375,-847.16796875,-857.421875
2.9549999237060547,-989.74609375,-1000.0,126.953125,-1000.0,508.30078125
2.9589061737060547,-885.7421875,-875.48828125,-875.0,477.05078125,-834.9609375
2.9628124237060547,553.7109375,528.80859375,-1000.0,-850.5859375,-68.84765625
2.9667186737060547,-844.23828125,-825.68359375,-471.19140625,750.0,-1000.0
2.9706249237060547,479.4921875,470.21484375,494.140625,-664.55078125,-899.4140625
2.9745311737060547,-893.5546875,-933.59375,316.89453125,-1000.0,435.05859375
2.9784374237060547,-923.33984375,-932.12890625,-756.34765625,336.9140625,-802.24609375
2.9823436737060547,549.8046875,526.85546875,-1000.0,-874.0234375,249.51171875
2.9862499237060547,-855.95703125,-844.7265625,-565.4296875,812.5,-994.62890625
2.9901561737060547,703.125,672.8515625,472.65625,-557.12890625,-1000.0
2.9940624237060547,-773.4375,-775.390625,490.234375,-1000.0,298.33984375
2.9979686737060547,-961.42578125,-1000.0,-634.27734375,4.39453125,-801.26953125
3.000999927520752,566.89453125,423.828125,-1000.0,-896.484375,517.08984375
3.004906177520752,-868.65234375,-854.4921875,-649.90234375,815.4296875,-827.63671875
3.008812427520752,762.6953125,763.18359375,398.92578125,-546.38671875,-1000.0
3.012718677520752,-709.47265625,-645.01953125,517.578125,-1000.0,16.11328125
3.016624927520752,-1000.0,-1000.0,-622.0703125,-349.609375,-883.30078125
3.020531177520752,491.69921875,250.9765625,-1000.0,977.5390625,747.55859375
3.024437427520752,-874.51171875,-860.3515625,-648.92578125,904.78515625,-622.0703125
3.028343677520752,819.3359375,801.26953125,408.69140625,-490.234375,-1000.0
3.032249927520752,-583.984375,-559.08203125,602.05078125,-1000.0,-394.53125
3.036156177520752,-1000.0,-1000.0,-540.0390625,-588.37890625,972.16796875
3.040062427520752,316.89453125,-57.6171875,-1000.0,836.9140625,861.328125
3.043968677520752,-890.13671875,-924.31640625,-763.18359375,-979.4921875,-574.21875
3.0460000038146973,897.94921875,842.28515625,138.671875,-373.53515625,-1000.0
3.0499062538146973,-396.484375,-517.578125,651.85546875,-1000.0,-615.72265625
3.0538125038146973,-1000.0,-1000.0,-204.1015625,-712.890625,861.328125
3.0577187538146973,22.94921875,-404.296875,-975.5859375,700.1953125,905.2734375
3.0616250038146973,-915.52734375,946.2890625,-917.48046875,-887.20703125,-586.42578125
3.0655312538146973,872.0703125,927.24609375,37.109375,-230.95703125,-1000.0
3.0694375038146973,-409.1796875,-459.9609375,704.58984375,-1000.0,-649.90234375
3.0733437538146973,-1000.0,-1000.0,-180.6640625,-831.0546875,828.125
3.0772500038146973,-293.45703125,-630.859375,-966.796875,511.23046875,928.7109375
3.0811562538146973,954.1015625,788.0859375,-955.56640625,-812.01171875,-574.21875
3.0850625038146973,986.81640625,-951.66015625,-164.0625,163.57421875,-1000.0
3.0889687538146973,-166.9921875,-291.9921875,601.5625,-1000.0,-821.77734375
3.0909998416900635,-1000.0,-1000.0,-89.35546875,-865.234375,604.4921875
3.0949060916900635,-573.73046875,-758.30078125,-927.24609375,519.04296875,-930.17578125
3.0988123416900635,838.37890625,642.08984375,-1000.0,-816.89453125,-395.01953125
3.1027185916900635,-926.7578125,-867.67578125,-309.08203125,548.828125,-1000.0
3.1066248416900635,-83.49609375,-80.078125,572.75390625,-929.19921875,-844.23828125
3.1105310916900635,-1000.0,-1000.0,108.3984375,-927.24609375,541.50390625
3.1144373416900635,-718.26171875,-843.75,-850.09765625,554.19921875,-858.88671875
3.1183435916900635,686.5234375,534.1796875,-1000.0,-852.05078125,-199.21875
3.1222498416900635,-868.1640625,-824.70703125,-356.93359375,695.80078125,-1000.0
3.1261560916900635,238.28125,209.9609375,585.9375,-772.94921875,-868.1640625
3.1300623416900635,-1000.0,-1000.0,176.7578125,-1000.0,500.9765625
3.1339685916900635,-891.6015625,-879.39453125,-853.515625,452.63671875,-827.63671875
3.1499998569488525,535.64453125,529.78515625,-1000.0,-864.74609375,-25.87890625
3.1539061069488525,-831.54296875,-827.63671875,-385.25390625,795.41015625,-1000.0
3.1578123569488525,451.66015625,507.32421875,552.24609375,-617.67578125,-921.875
3.1617186069488525,-931.640625,-913.57421875,329.58984375,-1000.0,376.953125
3.1656248569488525,-915.52734375,-944.82421875,-737.79296875,304.19921875,-801.26953125
3.1695311069488525,545.41015625,520.99609375,-1000.0,-857.421875,497.0703125
3.1734373569488525,-847.16796875,-848.14453125,-562.5,804.6875,-877.44140625
3.1773436069488525,670.41015625,694.3359375,442.3828125,-554.19921875,-1000.0
3.1812498569488525,-814.94140625,-750.0,482.91015625,-1000.0,276.85546875
3.1851561069488525,-954.58984375,-1000.0,-652.83203125,4.39453125,-807.6171875
3.1890623569488525,566.40625,402.34375,-1000.0,-896.484375,547.8515625
3.1929686069488525,-872.0703125,-855.46875,-674.8046875,813.4765625,-800.78125
3.194999933242798,770.99609375,776.3671875,404.78515625,-544.43359375,-1000.0
3.198906183242798,-698.73046875,-625.48828125,555.17578125,-1000.0,-59.08203125
3.202812433242798,-1000.0,-1000.0,-614.2578125,-383.7890625,-903.3203125
3.206718683242798,486.81640625,224.12109375,-1000.0,962.40234375,741.2109375
3.210624933242798,-874.51171875,-864.74609375,-703.61328125,919.43359375,-636.23046875
3.214531183242798,819.3359375,808.59375,299.31640625,-479.4921875,-1000.0
3.218437433242798,-583.984375,-547.36328125,614.2578125,-1000.0,-392.08984375
3.222343683242798,-1000.0,-1000.0,-433.10546875,-629.39453125,972.16796875
3.226249933242798,314.453125,-99.12109375,-1000.0,791.015625,863.76953125
3.230156183242798,-882.32421875,-938.4765625,-753.41796875,-941.89453125,-568.84765625
3.234062433242798,872.55859375,854.98046875,160.64453125,-315.91796875,-1000.0
3.237968683242798,-430.17578125,-503.41796875,640.13671875,-1000.0,-660.15625
3.240000009536743,-1000.0,-1000.0,-211.9140625,-732.91015625,830.56640625
3.243906259536743,20.01953125,-433.10546875,-971.19140625,654.78515625,912.109375
3.247812509536743,-933.10546875,926.7578125,-923.828125,-856.4453125,-595.703125
3.251718759536743,910.15625,951.171875,-49.31640625,-64.453125,-1000.0
3.255625009536743,-319.3359375,-425.29296875,642.578125,-1000.0,-763.671875
3.259531259536743,-1000.0,-1000.0,-84.47265625,-847.16796875,719.23828125
3.263437509536743,-362.79296875,-644.04296875,-937.5,517.08984375,966.30859375
3.267343759536743,918.45703125,769.53125,-956.54296875,-812.01171875,-561.03515625
3.271250009536743,-989.2578125,-932.12890625,-23.4375,250.9765625,-1000.0
3.275156259536743,-18.06640625,-229.4921875,664.0625,-1000.0,-834.47265625
3.279062509536743,-1000.0,-1000.0,-58.10546875,-878.90625,600.5859375
3.282968759536743,-641.11328125,-775.390625,-906.73828125,525.87890625,-945.80078125
3.2849998474121094,801.7578125,621.58203125,-1000.0,-818.84765625,-436.03515625
3.2889060974121094,-916.50390625,-856.93359375,-328.61328125,548.828125,-1000.0
3.2928123474121094,61.03515625,-5.859375,573.73046875,-929.19921875,-846.19140625
3.2967185974121094,-1000.0,-1000.0,132.32421875,-927.24609375,538.57421875
3.3006248474121094,-755.859375,-854.00390625,-858.3984375,554.6875,-858.3984375
3.3045310974121094,677.24609375,528.3203125,-1000.0,-851.07421875,-227.5390625
3.3084373474121094,-862.79296875,-822.75390625,-346.19140625,693.84765625,-1000.0
3.3123435974121094,275.87890625,296.38671875,593.26171875,-758.30078125,-840.33203125
3.3162498474121094,-997.0703125,-1000.0,353.515625,-1000.0,523.4375
3.3201560974121094,-889.16015625,-891.11328125,-771.97265625,395.5078125,-823.73046875
3.3240623474121094,532.71484375,535.64453125,-1000.0,-865.72265625,24.4140625
3.3279685974121094,-839.84375,-833.49609375,-446.77734375,815.91796875,-1000.0
3.3299999237060547,625.48828125,565.4296875,500.48828125,-575.68359375,-952.1484375
3.3339061737060547,-840.33203125,-873.53515625,362.3046875,-1000.0,353.02734375
3.3378124237060547,-945.80078125,-965.8203125,-741.69921875,235.3515625,-794.921875
3.3417186737060547,558.10546875,509.27734375,-1000.0,-857.421875,341.796875
3.3456249237060547,-853.515625,-851.07421875,-603.02734375,806.640625,-948.2421875
3.3495311737060547,693.84765625,715.33203125,456.54296875,-554.19921875,-1000.0
3.3534374237060547,-802.734375,-723.14453125,517.578125,-1000.0,233.3984375
3.3573436737060547,-959.9609375,-1000.0,-652.83203125,-39.55078125,-817.87109375
3.3612499237060547,569.82421875,377.9296875,-1000.0,-908.69140625,601.5625
3.3651561737060547,-864.74609375,-848.6328125,-686.03515625,829.58984375,-790.52734375
3.3690624237060547,766.6015625,778.3203125,385.7421875,-557.6171875,-1000.0
3.3729686737060547,-668.45703125,-605.46875,611.328125,-1000.0,130.37109375
3.375999927520752,-888.671875,-1000.0,-591.796875,-187.01171875,-870.60546875
3.379906177520752,488.28125,233.88671875,-1000.0,-963.8671875,759.765625
3.383812427520752,-913.57421875,-900.390625,-721.19140625,890.13671875,-577.1484375
3.387718677520752,874.0234375,825.68359375,250.48828125,-455.078125,-1000.0
3.391624927520752,-520.01953125,-544.921875,617.1875,-1000.0,-498.53515625
3.395531177520752,-1000.0,-1000.0,-363.76953125,-640.625,924.8046875
3.399437427520752,268.06640625,-170.8984375,-1000.0,782.71484375,882.32421875
3.403343677520752,-885.25390625,-962.40234375,-812.98828125,-939.453125,-577.1484375
3.407249927520752,881.34765625,870.60546875,121.09375,-319.3359375,-1000.0
3.411156177520752,-406.73828125,-491.2109375,659.1796875,-1000.0,-679.19921875
3.415062427520752,-1000.0,-1000.0,-147.4609375,-772.94921875,816.40625
3.418968677520752,17.578125,-491.69921875,-933.10546875,605.46875,917.48046875
3.419999837875366,-932.12890625,891.6015625,-955.56640625,-842.28515625,-597.16796875
3.423906087875366,917.96875,976.07421875,-63.4765625,-33.69140625,-1000.0
3.427812337875366,-320.3125,-389.6484375,660.64453125,-1000.0,-778.3203125
3.431718587875366,-1000.0,-1000.0,-112.79296875,-845.21484375,692.87109375
3.435624837875366,-356.4453125,-668.9453125,-953.61328125,512.6953125,990.234375
3.439531087875366,905.76171875,742.67578125,-954.58984375,-809.08203125,-528.3203125
3.443437337875366,-960.44921875,-914.55078125,-41.015625,358.88671875,-1000.0
3.447343587875366,40.0390625,-184.08203125,650.87890625,-1000.0,-826.66015625
3.451249837875366,-1000.0,-1000.0,-64.453125,-894.53125,561.03515625
3.455156087875366,-660.15625,-797.36328125,-904.296875,536.1328125,-871.09375
3.459062337875366,767.578125,592.7734375,-1000.0,-834.47265625,-235.3515625
3.462968587875366,-895.01953125,-845.21484375,-336.9140625,626.953125,-1000.0
3.4799997806549072,240.72265625,68.359375,571.77734375,-869.62890625,-855.95703125
3.4839060306549072,-1000.0,-1000.0,129.39453125,-944.82421875,546.38671875
3.4878122806549072,-836.9140625,-870.60546875,-866.2109375,562.5,-857.91015625
3.4917185306549072,644.04296875,532.2265625,-1000.0,-860.3515625,-196.77734375
3.4956247806549072,-867.67578125,-825.68359375,-415.0390625,727.5390625,-1000.0
3.4995310306549072,245.1171875,267.578125,539.55078125,-722.16796875,-875.9765625
3.5034372806549072,-973.6328125,-1000.0,330.078125,-1000.0,461.42578125
3.5073435306549072,-888.671875,-885.7421875,-770.5078125,397.4609375,-810.05859375
3.5112497806549072,534.1796875,533.69140625,-1000.0,-864.2578125,122.0703125
3.5151560306549072,-852.5390625,-838.8671875,-434.08203125,813.4765625,-1000.0
3.5190622806549072,687.5,625.48828125,512.20703125,-570.80078125,-970.21484375
3.5229685306549072,-767.578125,-823.73046875,376.953125,-1000.0,329.58984375
3.5249998569488525,-958.984375,-990.72265625,-735.3515625,205.078125,-805.17578125
3.5289061069488525,562.98828125,494.140625,-1000.0,-856.93359375,560.546875
3.5328123569488525,-861.328125,-855.46875,-558.59375,806.15234375,-813.96484375
3.5367186069488525,732.91015625,740.72265625,420.41015625,-551.26953125,-1000.0
3.5406248569488525,-762.6953125,-690.91796875,491.2109375,-1000.0,137.20703125
3.5445311069488525,-969.7265625,-1000.0,-637.20703125,-62.98828125,-845.703125
3.5484373569488525,576.66015625,353.515625,-1000.0,-912.109375,678.22265625
3.5523436069488525,-887.20703125,-857.91015625,-632.32421875,718.26171875,-735.3515625
3.5562498569488525,823.2421875,795.8984375,383.7890625,-578.61328125,-1000.0
3.5601561069488525,-604.00390625,-584.47265625,624.0234375,-1000.0,72.265625
3.5640623569488525,-1000.0,-1000.0,-544.921875,-482.91015625,-883.30078125
3.5679686069488525,407.71484375,121.58203125,-1000.0,903.3203125,741.2109375
3.569999933242798,-882.32421875,-880.859375,-743.65234375,985.3515625,-590.8203125
3.573906183242798,869.62890625,818.84765625,200.1953125,-394.04296875,-1000.0
3.577812433242798,-482.421875,-530.76171875,602.05078125,-1000.0,-543.9453125
3.581718683242798,-1000.0,-1000.0,-469.23828125,-625.9765625,904.78515625
3.585624933242798,229.4921875,-229.98046875,-1000.0,784.1796875,887.20703125
3.589531183242798,-887.20703125,-983.88671875,-646.97265625,792.48046875,-583.984375
3.593437433242798,688.4765625,685.546875,226.5625,-383.30078125,-1000.0
3.597343683242798,-442.87109375,-564.94140625,659.66796875,-1000.0,-674.31640625
3.601249933242798,-1000.0,-1000.0,-132.32421875,-800.29296875,820.3125
3.605156183242798,-178.7109375,-565.4296875,-925.29296875,616.69921875,916.50390625
3.609062433242798,-974.12109375,867.67578125,-939.453125,-842.28515625,-598.14453125
3.612968683242798,928.7109375,990.234375,-52.24609375,-33.69140625,-1000.0
3.615000009536743,-299.8046875,-394.04296875,643.5546875,-1000.0,-795.8984375
3.618906259536743,-1000.0,-1000.0,-132.8125,-845.703125,670.8984375
3.622812509536743,-487.3046875,-703.61328125,-940.91796875,512.6953125,997.55859375
3.626718759536743,883.30078125,712.890625,-992.67578125,-809.08203125,-521.97265625
3.630625009536743,-966.30859375,-907.71484375,-235.83984375,359.375,-1000.0
3.634531259536743,-209.9609375,-220.703125,611.328125,-1000.0,-820.3125
3.638437509536743,-1000.0,-1000.0,10.7421875,-894.53125,561.03515625
3.642343759536743,-645.5078125,-813.96484375,-896.97265625,535.64453125,-864.74609375
3.646250009536743,758.30078125,567.87109375,-1000.0,-833.0078125,-196.77734375
3.650156259536743,-887.6953125,-840.33203125,-378.41796875,625.9765625,-1000.0
3.654062509536743,-30.76171875,32.71484375,535.64453125,-850.09765625,-852.05078125
3.657968759536743,-1000.0,-1000.0,151.85546875,-994.140625,535.64453125
3.674999952316284,-791.9921875,-859.86328125,-850.09765625,490.234375,-839.35546875
3.678906202316284,605.46875,522.4609375,-1000.0,-859.375,-71.77734375
3.682812452316284,-829.1015625,-819.3359375,-447.75390625,761.23046875,-1000.0
3.686718702316284,199.21875,342.28515625,536.62109375,-676.7578125,-895.99609375
3.690624952316284,-1000.0,-1000.0,316.40625,-1000.0,444.3359375
3.694531202316284,-870.60546875,-902.34375,-766.6015625,361.328125,-805.17578125
3.698437452316284,520.99609375,529.296875,-1000.0,-862.79296875,226.5625
3.702343702316284,-818.359375,-832.51953125,-451.171875,814.94140625,-1000.0
3.706249952316284,548.33984375,592.7734375,562.01171875,-572.75390625,-994.62890625
3.710156202316284,-929.19921875,-848.14453125,406.73828125,-1000.0,326.171875
3.714062452316284,-927.24609375,-1000.0,-708.984375,205.078125,-797.8515625
3.717968702316284,554.19921875,456.0546875,-1000.0,-856.4453125,458.984375
3.7049999237060547,-854.4921875,-848.6328125,-645.99609375,799.31640625,-876.953125
3.7089061737060547,702.1484375,729.4921875,376.46484375,-542.96875,-1000.0
3.7128124237060547,-780.76171875,-694.3359375,506.8359375,-1000.0,127.44140625
3.7167186737060547,-1000.0,-1000.0,-609.375,-195.3125,-843.75
3.7206249237060547,507.32421875,307.6171875,-1000.0,-951.171875,672.8515625
3.7245311737060547,-879.8828125,-858.3984375,-694.3359375,834.9609375,-687.01171875
3.7284374237060547,827.1484375,801.26953125,364.2578125,-552.24609375,-1000.0
3.7323436737060547,-600.5859375,-582.03125,603.02734375,-1000.0,-312.01171875
3.7362499237060547,-1000.0,-1000.0,-558.10546875,-533.69140625,-984.86328125
3.7401561737060547,415.52734375,134.27734375,-1000.0,866.69921875,718.75
3.7440624237060547,-902.83203125,-907.71484375,-712.40234375,-986.81640625,-656.73828125
3.7479686737060547,925.78125,897.4609375,363.76953125,-359.86328125,-1000.0
3.75,-406.25,-404.296875,650.87890625,-1000.0,-662.109375
3.75390625,-1000.0,-1000.0,-470.703125,-635.7421875,836.42578125
3.7578125,340.8203125,-76.171875,-1000.0,770.5078125,832.03125
3.76171875,-934.5703125,-998.53515625,-832.03125,-905.2734375,-634.27734375
3.765625,-998.046875,995.60546875,74.21875,-215.33203125,-1000.0
3.76953125,-57.6171875,-71.2890625,685.546875,-1000.0,-766.11328125
3.7734375,-1000.0,-1000.0,-203.125,-768.06640625,740.234375
3.77734375,30.2734375,-487.3046875,-964.35546875,594.23828125,924.31640625
3.78125,-978.02734375,885.25390625,-930.6640625,-826.171875,-614.2578125
3.78515625,-968.26171875,-957.51953125,-44.921875,165.52734375,-1000.0
3.7890625,200.1953125,-102.5390625,674.8046875,-1000.0,-786.1328125
3.79296875,-1000.0,-1000.0,-176.26953125,-866.69921875,694.3359375
3.794999837875366,-452.1484375,-720.703125,-970.703125,520.5078125,970.21484375
3.798906087875366,918.9453125,723.6328125,-989.74609375,-815.91796875,-562.01171875
3.802812337875366,-966.796875,-895.99609375,-219.23828125,510.7421875,-1000.0
3.806718587875366,80.56640625,-121.58203125,615.72265625,-945.80078125,-833.984375
3.810624837875366,-1000.0,-1000.0,-27.83203125,-926.26953125,528.80859375
3.814531087875366,-742.67578125,-841.30859375,-912.109375,554.19921875,-848.14453125
3.818437337875366,736.328125,564.453125,-1000.0,-837.890625,-123.53515625
3.822343587875366,-931.640625,-878.90625,-314.94140625,523.4375,-1000.0
3.826249837875366,-140.625,-74.21875,574.70703125,-877.44140625,-850.09765625
3.830156087875366,-1000.0,-1000.0,169.921875,-996.58203125,524.4140625
3.834062337875366,-859.375,-896.97265625,-818.84765625,449.70703125,-822.75390625
3.837968587875366,535.64453125,478.02734375,-1000.0,-852.05078125,116.2109375
3.871999979019165,-831.0546875,-817.87109375,-532.71484375,756.8359375,-1000.0
3.875906229019165,-36.1328125,40.52734375,464.84375,-667.48046875,-877.44140625
3.879812479019165,-1000.0,-1000.0,317.87109375,-1000.0,499.51171875
3.883718729019165,-845.703125,-951.171875,-749.51171875,302.734375,-818.359375
3.887624979019165,511.71875,309.08203125,-1000.0,-858.3984375,496.58203125
3.891531229019165,-810.05859375,-804.19921875,-534.1796875,804.6875,-914.0625
3.895437479019165,358.3984375,393.5546875,449.70703125,-554.19921875,-978.515625
3.899343729019165,-1000.0,-932.6171875,401.85546875,-1000.0,457.03125
3.903249979019165,-895.01953125,-1000.0,-633.30078125,3.90625,-840.33203125
3.907156229019165,535.64453125,176.26953125,-1000.0,-896.484375,691.89453125
3.911062479019165,-832.51953125,-843.26171875,-636.71875,813.4765625,-735.83984375
3.914968729019165,620.1171875,637.6953125,336.42578125,-544.43359375,-1000.0
3.9029998779296875,-837.890625,-786.62109375,573.2421875,-1000.0,302.734375
3.9069061279296875,-1000.0,-1000.0,-283.69140625,-386.71875,-850.09765625
3.9108123779296875,429.19921875,132.32421875,-1000.0,970.21484375,752.44140625
3.9147186279296875,-855.95703125,-879.39453125,-738.76953125,894.53125,-619.140625
3.9186248779296875,766.6015625,796.875,344.23828125,-518.5546875,-1000.0
3.9225311279296875,-655.2734375,-590.8203125,677.24609375,-1000.0,-41.9921875
3.9264373779296875,-1000.0,-1000.0,-236.328125,-629.8828125,-923.33984375
3.9303436279296875,302.734375,-49.8046875,-1000.0,811.5234375,803.7109375
3.9342498779296875,-858.88671875,-916.015625,-774.90234375,-982.421875,-562.01171875
3.9381561279296875,804.19921875,822.265625,282.71484375,-406.25,-1000.0
3.9420623779296875,-554.19921875,-549.31640625,667.96875,-1000.0,-565.4296875
3.9459686279296875,-1000.0,-1000.0,-198.73046875,-741.2109375,887.6953125
3.944999933242798,3.90625,-396.97265625,-940.91796875,666.9921875,902.83203125
3.948906183242798,-897.4609375,966.30859375,-888.18359375,-867.1875,-570.80078125
3.952812433242798,822.75390625,892.578125,-17.08984375,-245.1171875,-1000.0
3.956718683242798,-554.6875,-552.734375,653.80859375,-1000.0,-697.265625
3.960624933242798,-1000.0,-1000.0,-124.0234375,-541.50390625,778.80859375
3.964531183242798,-188.96484375,-438.4765625,-943.84765625,635.25390625,852.5390625
3.968437433242798,-960.44921875,889.6484375,-915.52734375,-863.76953125,-583.49609375
3.972343683242798,877.9296875,958.0078125,-122.55859375,187.01171875,-1000.0
3.976249933242798,-475.09765625,-437.01171875,662.59765625,-1000.0,-715.8203125
3.980156183242798,-1000.0,-1000.0,216.30859375,-865.234375,745.60546875
3.984062433242798,-607.91015625,-750.0,-817.87109375,519.04296875,-979.00390625
3.987968683242798,815.4296875,662.59765625,-1000.0,-816.89453125,-437.01171875
3.990000009536743,-964.35546875,-897.94921875,-196.77734375,548.828125,-1000.0
3.993906259536743,-349.609375,-262.6953125,620.1171875,-929.19921875,-827.1484375
3.997812509536743,-1000.0,-1000.0,145.99609375,-932.6171875,540.0390625
4.001718759536743,-706.54296875,-825.1953125,-820.80078125,560.05859375,-845.703125
4.005625009536743,689.453125,538.0859375,-1000.0,-850.5859375,-102.05078125
4.009531259536743,-871.58203125,-829.1015625,-332.03125,582.03125,-1000.0
4.013437509536743,-119.62890625,52.734375,567.3828125,-807.12890625,-868.65234375
4.017343759536743,-1000.0,-1000.0,325.68359375,-1000.0,533.203125
4.021250009536743,-840.33203125,-857.421875,-724.12109375,396.97265625,-837.890625
4.025156259536743,512.6953125,519.53125,-1000.0,-856.4453125,-70.3125
4.029062509536743,-812.01171875,-817.87109375,-492.1875,789.0625,-1000.0
4.032968759536743,250.48828125,423.33984375,513.18359375,-620.1171875,-919.43359375
4.034999847412109,-1000.0,-966.30859375,405.2734375,-1000.0,406.25
4.038906097412109,-878.41796875,-918.9453125,-719.7265625,271.97265625,-802.734375
4.042812347412109,525.87890625,529.296875,-1000.0,-857.91015625,217.28515625
4.046718597412109,-824.70703125,-843.26171875,-535.64453125,806.640625,-1000.0
4.050624847412109,581.54296875,660.64453125,458.0078125,-556.15234375,-1000.0
4.054531097412109,-903.80859375,-791.50390625,513.18359375,-1000.0,299.8046875
4.058437347412109,-934.5703125,-1000.0,-610.3515625,4.39453125,-820.3125
4.062343597412109,558.10546875,449.70703125,-1000.0,-896.97265625,655.76171875
4.066249847412109,-860.3515625,-858.88671875,-550.78125,813.4765625,-708.0078125
4.070156097412109,724.609375,773.4375,423.828125,-544.43359375,-1000.0
4.074062347412109,-750.9765625,-642.578125,541.9921875,-1000.0,-56.15234375
4.077968597412109,-1000.0,-1000.0,-505.37109375,-383.7890625,-892.08984375
4.079999923706055,489.2578125,298.33984375,-1000.0,961.9140625,507.8125
4.083906173706055,-875.9765625,-862.3046875,-764.6484375,919.921875,-774.4140625
4.087812423706055,820.80078125,817.3828125,258.7890625,-478.515625,-1000.0
4.091718673706055,-587.40234375,-550.29296875,631.8359375,-1000.0,-490.72265625
4.095624923706055,-1000.0,-1000.0,-435.546875,-587.40234375,947.265625
4.099531173706055,340.8203125,76.171875,-1000.0,822.75390625,793.9453125
4.103437423706055,-901.85546875,-919.43359375,-764.16015625,-951.66015625,-635.25390625
4.107343673706055,931.15234375,898.92578125,230.95703125,-310.546875,-1000.0
4.111249923706055,-370.1171875,-392.578125,663.57421875,-1000.0,-696.2890625
4.115156173706055,-1000.0,-1000.0,-302.734375,-702.63671875,817.3828125
4.119062423706055,205.56640625,-217.28515625,-990.72265625,682.12890625,821.2890625
4.122968673706055,-857.91015625,-991.2109375,-824.21875,-857.91015625,-666.015625
4.125,813.96484375,922.8515625,6.8359375,-30.2734375,-1000.0
4.12890625,-494.140625,-386.23046875,626.46484375,-1000.0,-777.34375
4.1328125,-1000.0,-1000.0,-105.95703125,-850.5859375,723.14453125
4.13671875,-230.95703125,-591.30859375,-934.5703125,519.04296875,942.87109375
4.140625,958.0078125,799.31640625,-978.02734375,-811.03515625,-592.7734375
4.14453125,988.28125,-933.59375,-136.71875,259.27734375,-1000.0
4.1484375,-44.921875,-151.85546875,666.50390625,-1000.0,-793.9453125
4.15234375,-1000.0,-1000.0,20.01953125,-878.41796875,698.2421875
4.15625,-547.8515625,-699.70703125,-905.76171875,527.83203125,943.359375
4.16015625,819.3359375,693.359375,-1000.0,-832.03125,-608.3984375
4.1640625,-906.25,-867.67578125,-178.22265625,631.34765625,-1000.0
4.16796875,427.734375,199.21875,644.53125,-866.2109375,-849.609375
4.169999837875366,-995.60546875,-1000.0,11.23046875,-945.3125,545.41015625
4.173906087875366,-786.62109375,-865.234375,-897.94921875,561.5234375,-888.18359375
4.177812337875366,736.328125,574.21875,-1000.0,-856.93359375,-304.19921875
4.181718587875366,-870.1171875,-833.0078125,-425.29296875,710.9375,-1000.0
4.185624837875366,128.41796875,252.44140625,526.85546875,-760.7421875,-862.79296875
4.189531087875366,-1000.0,-1000.0,278.80859375,-1000.0,510.25390625
4.193437337875366,-870.1171875,-886.71875,-776.3671875,470.703125,-848.14453125
4.197343587875366,526.85546875,533.203125,-1000.0,-873.046875,-120.1171875
4.201249837875366,-823.73046875,-826.171875,-543.9453125,819.82421875,-1000.0
4.205156087875366,405.76171875,484.86328125,471.19140625,-584.47265625,-924.31640625
4.209062337875366,-965.33203125,-930.6640625,367.1875,-1000.0,375.48828125
4.212968587875366,-905.2734375,-933.59375,-760.25390625,304.6875,-795.41015625
4.2159998416900635,538.57421875,528.3203125,-1000.0,-856.93359375,276.85546875
4.2199060916900635,-836.42578125,-845.703125,-551.7578125,804.6875,-977.5390625
4.2238123416900635,633.30078125,680.6640625,452.1484375,-554.19921875,-1000.0
4.2277185916900635,-862.79296875,-768.06640625,454.58984375,-1000.0,253.41796875
4.2316248416900635,-946.2890625,-1000.0,-688.96484375,4.39453125,-829.1015625
4.2355310916900635,564.453125,415.0390625,-1000.0,-896.484375,692.3828125
4.2394373416900635,-870.1171875,-853.02734375,-660.64453125,813.96484375,-699.70703125
4.2433435916900635,761.71875,762.20703125,382.8125,-544.43359375,-1000.0
4.2472498416900635,-710.9375,-645.01953125,561.5234375,-1000.0,63.4765625
4.2511560916900635,-1000.0,-1000.0,-561.5234375,-376.46484375,-875.9765625
4.2550623416900635,491.2109375,242.67578125,-1000.0,945.3125,620.60546875
4.2589685916900635,-875.0,-860.83984375,-771.97265625,964.35546875,-728.02734375
4.2759997844696045,819.3359375,802.24609375,206.0546875,-393.5546875,-1000.0
4.2799060344696045,-583.984375,-559.08203125,675.78125,-1000.0,-55.17578125
4.2838122844696045,-1000.0,-1000.0,-351.07421875,-611.328125,-913.57421875
4.2877185344696045,305.6640625,-52.24609375,-1000.0,795.41015625,716.30859375
4.2916247844696045,-860.83984375,-920.41015625,-823.2421875,-924.31640625,-606.93359375
4.2955310344696045,812.98828125,836.9140625,198.73046875,-251.46484375,-1000.0
4.2994372844696045,-537.59765625,-523.4375,685.05859375,-1000.0,-610.3515625
4.3033435344696045,-1000.0,-1000.0,-298.828125,-711.42578125,869.62890625
4.3072497844696045,16.6015625,-406.73828125,-982.421875,680.17578125,898.4375
4.3111560344696045,-925.78125,940.91796875,-930.17578125,-856.93359375,-589.84375
4.3150622844696045,884.27734375,937.5,-103.02734375,-29.78515625,-1000.0
4.3189685344696045,-385.25390625,-441.89453125,630.859375,-1000.0,-761.71875
4.319999933242798,-1000.0,-1000.0,-147.94921875,-845.703125,731.4453125
4.323906183242798,-269.53125,-623.046875,-944.82421875,512.20703125,941.89453125
4.327812433242798,948.73046875,786.1328125,-992.67578125,-803.7109375,-595.21484375
4.331718683242798,995.60546875,-939.94140625,-221.19140625,353.02734375,-1000.0
4.335624933242798,-15.625,-235.83984375,613.76953125,-1000.0,-829.58984375
4.339531183242798,-1000.0,-1000.0,-59.5703125,-794.921875,614.2578125
4.343437433242798,-582.51953125,-748.53515625,-925.29296875,570.3125,-963.37890625
4.347343683242798,839.35546875,651.3671875,-1000.0,-851.07421875,-463.37890625
4.351249933242798,-927.24609375,-863.76953125,-214.35546875,639.16015625,-1000.0
4.355156183242798,131.34765625,-0.9765625,686.5234375,-868.65234375,-835.44921875
4.359062433242798,-1000.0,-1000.0,23.92578125,-945.80078125,559.5703125
4.362968683242798,-746.58203125,-846.6796875,-904.78515625,565.91796875,-881.34765625
4.365000009536743,696.2890625,537.59765625,-1000.0,-871.09375,-252.44140625
4.368906259536743,-875.48828125,-826.66015625,-454.1015625,770.01953125,-1000.0
4.372812509536743,406.73828125,333.49609375,524.90234375,-694.82421875,-883.7890625
4.376718759536743,-926.26953125,-995.1171875,221.19140625,-1000.0,471.6796875
4.380625009536743,-913.0859375,-897.4609375,-828.61328125,466.30859375,-833.49609375
4.384531259536743,547.36328125,539.0625,-1000.0,-872.0703125,-35.15625
4.388437509536743,-861.81640625,-840.8203125,-494.140625,820.3125,-1000.0
4.392343759536743,720.703125,610.3515625,530.76171875,-584.47265625,-921.875
4.396250009536743,-749.0234375,-844.7265625,464.84375,-1000.0,450.68359375
4.400156259536743,-967.28515625,-958.0078125,-733.88671875,304.6875,-828.61328125
4.404062509536743,569.82421875,541.015625,-1000.0,-856.93359375,38.0859375
4.407968759536743,-873.53515625,-861.81640625,-579.1015625,804.6875,-1000.0
4.409999847412109,771.484375,742.67578125,447.75390625,-554.19921875,-1000.0
4.413906097412109,-712.40234375,-708.984375,468.75,-1000.0,127.44140625
4.417812347412109,-978.02734375,-1000.0,-697.75390625,5.37109375,-834.9609375
4.421718597412109,577.1484375,435.546875,-1000.0,-900.87890625,427.24609375
4.425624847412109,-886.23046875,-863.76953125,-660.64453125,826.171875,-821.77734375
4.429531097412109,822.75390625,799.31640625,410.15625,-525.87890625,-1000.0
4.433437347412109,-632.8125,-605.46875,610.3515625,-1000.0,-123.046875
4.437343597412109,-1000.0,-1000.0,-578.125,-368.1640625,-923.828125
4.441249847412109,500.48828125,269.04296875,-1000.0,946.77734375,800.78125
4.445156097412109,-892.08984375,-861.81640625,-752.44140625,967.28515625,-602.5390625
4.449062347412109,875.48828125,814.94140625,224.609375,-385.25390625,-1000.0
4.452968597412109,-495.60546875,-536.62109375,610.3515625,-1000.0,-315.91796875
4.454999923706055,-1000.0,-1000.0,-537.109375,-602.5390625,-980.46875
4.458906173706055,321.77734375,-45.41015625,-1000.0,793.9453125,652.34375
4.462812423706055,-896.484375,-928.7109375,-816.89453125,-912.59765625,-705.078125
4.466718673706055,914.55078125,861.81640625,106.4453125,-212.40234375,-1000.0
4.470624923706055,-344.23828125,-474.609375,651.85546875,-1000.0,-703.61328125
4.474531173706055,-1000.0,-1000.0,-290.0390625,-696.77734375,807.6171875
4.478437423706055,64.94140625,-404.78515625,-989.2578125,670.8984375,915.52734375
4.482343673706055,-948.73046875,926.7578125,-934.08203125,-841.796875,-601.07421875
4.486249923706055,967.7734375,970.21484375,-108.3984375,168.9453125,-1000.0
4.490156173706055,-136.71875,-355.95703125,623.53515625,-1000.0,-798.828125
4.494062423706055,-1000.0,-1000.0,-180.17578125,-866.2109375,690.4296875
4.497968673706055,-205.56640625,-629.39453125,-950.1953125,520.01953125,951.66015625
4.5,958.49609375,772.4609375,-985.3515625,-815.91796875,-595.703125
4.50390625,-968.75,-916.015625,-240.72265625,526.3671875,-1000.0
4.5078125,222.16796875,-131.8359375,633.30078125,-938.96484375,-812.5
4.51171875,-1000.0,-1000.0,-61.03515625,-923.828125,640.625
4.515625,-590.33203125,-757.8125,-943.84765625,551.26953125,-979.98046875
4.51953125,829.1015625,642.578125,-1000.0,-847.16796875,-484.86328125
4.5234375,-903.3203125,-854.4921875,-245.1171875,673.33984375,-1000.0
4.52734375,425.78125,118.65234375,664.55078125,-827.63671875,-849.12109375
4.53125,-996.09375,-1000.0,41.9921875,-955.56640625,545.8984375
4.53515625,-779.78515625,-863.76953125,-904.296875,568.359375,-885.25390625
4.5390625,709.47265625,539.55078125,-1000.0,-871.09375,-264.6484375
4.54296875,-881.34765625,-827.63671875,-431.15234375,768.06640625,-1000.0
4.546000003814697,573.73046875,388.18359375,529.296875,-690.91796875,-906.25
4.549906253814697,-852.05078125,-973.14453125,231.93359375,-1000.0,468.75
4.553812503814697,-941.40625,-905.76171875,-832.51953125,445.80078125,-868.65234375
4.557718753814697,562.98828125,542.96875,-1000.0,-870.60546875,-176.26953125
4.561625003814697,-875.9765625,-842.28515625,-540.52734375,820.80078125,-1000.0
4.565531253814697,769.04296875,626.46484375,516.11328125,-585.44921875,-904.78515625
4.569437503814697,-696.2890625,-833.49609375,500.0,-1000.0,433.10546875
4.573343753814697,-977.5390625,-968.26171875,-724.12109375,304.6875,-817.3828125
4.577250003814697,573.73046875,531.25,-1000.0,-856.93359375,117.67578125
4.581156253814697,-878.41796875,-861.328125,-587.40234375,804.6875,-988.28125
4.585062503814697,794.43359375,747.0703125,437.98828125,-554.19921875,-1000.0
4.588968753814697,-687.5,-695.80078125,479.98046875,-1000.0,87.890625
4.5899999141693115,-983.3984375,-1000.0,-704.58984375,11.23046875,-839.35546875
4.5939061641693115,579.58984375,403.3203125,-1000.0,-915.0390625,453.125
4.5978124141693115,-889.6484375,-861.81640625,-697.75390625,870.1171875,-813.4765625
4.6017186641693115,834.9609375,801.7578125,310.05859375,-456.0546875,-1000.0
4.6056249141693115,-617.1875,-592.28515625,597.16796875,-1000.0,-190.4296875
4.6095311641693115,-1000.0,-1000.0,-579.58984375,-371.09375,-933.59375
4.6134374141693115,504.8828125,211.42578125,-1000.0,934.5703125,608.88671875
4.6173436641693115,-901.3671875,-868.65234375,-739.2578125,994.62890625,-715.8203125
4.6212499141693115,899.4140625,815.91796875,253.90625,-324.21875,-1000.0
4.6251561641693115,-449.21875,-534.1796875,614.74609375,-1000.0,-363.28125
4.6290624141693115,-1000.0,-1000.0,-534.66796875,-637.20703125,-998.046875
4.6329686641693115,319.82421875,-122.0703125,-1000.0,771.97265625,725.09765625
4.6499998569488525,-891.11328125,-949.70703125,-833.984375,-904.78515625,-655.76171875
4.6539061069488525,900.87890625,868.1640625,140.625,-215.8203125,-1000.0
4.6578123569488525,-354.98046875,-481.4453125,670.41015625,-1000.0,-711.9140625
4.6617186069488525,-1000.0,-1000.0,-370.1171875,-753.41796875,792.96875
4.6656248569488525,31.25,-466.30859375,-1000.0,610.3515625,924.31640625
4.6695311069488525,-956.54296875,903.80859375,-890.13671875,-829.58984375,-592.28515625
4.6734373569488525,961.9140625,975.09765625,-40.0390625,166.50390625,-1000.0
4.6773436069488525,-94.23828125,-384.27734375,649.4140625,-1000.0,-780.2734375
4.6812498569488525,-1000.0,-1000.0,-196.2890625,-865.234375,701.66015625
4.6851561069488525,-376.953125,-664.0625,-953.125,519.04296875,966.30859375
4.6890623569488525,916.50390625,752.9296875,-990.72265625,-816.89453125,-565.4296875
4.6929686069488525,-963.37890625,-920.41015625,-260.25390625,548.828125,-1000.0
4.69599986076355,125.48828125,-227.5390625,612.79296875,-929.19921875,-818.359375
4.69990611076355,-1000.0,-1000.0,-79.1015625,-927.24609375,622.0703125
4.70381236076355,-648.4375,-792.48046875,-945.80078125,554.19921875,-954.58984375
4.70771861076355,787.109375,595.703125,-1000.0,-854.4921875,-440.91796875
4.71162486076355,-897.4609375,-846.6796875,-337.40234375,705.078125,-1000.0
4.71553111076355,313.96484375,6.34765625,602.5390625,-798.33984375,-839.35546875
4.71943736076355,-1000.0,-1000.0,126.46484375,-962.890625,528.80859375
4.72334361076355,-782.2265625,-855.95703125,-881.34765625,573.2421875,-846.19140625
4.72724986076355,688.4765625,520.5078125,-1000.0,-878.90625,-119.140625
4.73115611076355,-871.58203125,-818.84765625,-349.12109375,795.8984375,-1000.0
4.73506236076355,482.91015625,338.37890625,565.91796875,-640.625,-907.71484375
4.73896861076355,-896.484375,-1000.0,232.91015625,-1000.0,450.1953125
4.740000009536743,-924.8046875,-895.99609375,-823.2421875,400.390625,-827.63671875
4.743906259536743,553.22265625,537.109375,-1000.0,-863.28125,24.90234375
4.747812509536743,-860.83984375,-830.078125,-572.265625,813.96484375,-1000.0
4.751718759536743,723.14453125,590.8203125,454.58984375,-570.80078125,-923.828125
4.755625009536743,-731.93359375,-852.05078125,427.734375,-1000.0,400.390625
4.759531259536743,-867.67578125,-883.7890625,-735.3515625,205.078125,-798.33984375
4.763437509536743,597.65625,526.85546875,-1000.0,-857.421875,397.94921875
4.767343759536743,-872.0703125,-869.62890625,-604.4921875,802.24609375,-899.90234375
4.771250009536743,720.703125,740.234375,461.42578125,-547.36328125,-1000.0
4.775156259536743,-792.96875,-706.0546875,490.72265625,-1000.0,111.328125
4.779062509536743,-965.33203125,-1000.0,-689.94140625,-133.7890625,-847.16796875
4.782968759536743,576.66015625,360.83984375,-1000.0,-955.078125,588.37890625
4.784999847412109,-889.16015625,-858.3984375,-724.609375,888.671875,-731.93359375
4.788906097412109,828.61328125,796.875,267.08984375,-464.84375,-1000.0
4.792812347412109,-601.07421875,-585.44921875,559.08203125,-1000.0,-264.6484375
4.796718597412109,-1000.0,-1000.0,-577.63671875,-411.62109375,-960.44921875
4.800624847412109,422.8515625,138.18359375,-1000.0,912.109375,648.4375
4.804531097412109,-891.11328125,-875.9765625,-752.44140625,-987.3046875,-710.9375
4.808437347412109,891.6015625,812.98828125,190.91796875,-304.19921875,-1000.0
4.812343597412109,-455.078125,-538.57421875,671.38671875,-1000.0,-375.9765625
4.816249847412109,-1000.0,-1000.0,-270.01953125,-632.8125,990.72265625
4.820156097412109,266.6015625,-218.26171875,-1000.0,764.6484375,783.203125
4.824062347412109,-888.18359375,-975.09765625,-883.30078125,-893.5546875,-625.48828125
4.827968597412109,890.13671875,872.55859375,48.828125,-137.20703125,-1000.0
4.836999893188477,-381.34765625,-500.0,579.58984375,-1000.0,-608.88671875
4.840906143188477,-1000.0,-1000.0,-300.29296875,-777.83203125,827.1484375
4.844812393188477,29.296875,-533.69140625,-969.7265625,599.609375,909.66796875
4.848718643188477,-955.078125,869.140625,-929.6875,-827.1484375,-586.42578125
4.852624893188477,957.03125,990.234375,-151.85546875,165.52734375,-1000.0
4.856531143188477,-108.3984375,-390.625,621.58203125,-1000.0,-802.24609375
4.860437393188477,-1000.0,-1000.0,-125.48828125,-865.234375,679.19921875
4.864343643188477,-378.90625,-687.5,-947.75390625,519.04296875,962.890625
4.868249893188477,920.41015625,722.16796875,-999.51171875,-816.89453125,-577.1484375
4.872156143188477,-971.19140625,-903.80859375,-291.015625,548.828125,-1000.0
4.876062393188477,87.890625,-185.546875,603.02734375,-929.19921875,-830.56640625
4.879968643188477,-1000.0,-1000.0,79.58984375,-927.24609375,606.93359375
4.875999927520752,-668.9453125,-805.17578125,-889.16015625,554.6875,-949.70703125
4.879906177520752,770.01953125,575.1953125,-1000.0,-854.4921875,-434.5703125
4.883812427520752,-898.92578125,-836.9140625,-339.84375,705.56640625,-1000.0
4.887718677520752,304.6875,95.703125,592.28515625,-787.59765625,-840.33203125
4.891624927520752,-991.2109375,-1000.0,138.671875,-987.3046875,529.78515625
4.895531177520752,-839.84375,-866.2109375,-878.41796875,541.015625,-848.6328125
4.899437427520752,626.953125,524.4140625,-1000.0,-883.7890625,-131.34765625
4.903343677520752,-862.79296875,-821.77734375,-362.79296875,827.63671875,-1000.0
4.907249927520752,518.06640625,401.85546875,558.10546875,-599.609375,-915.0390625
4.911156177520752,-866.2109375,-975.09765625,262.6953125,-1000.0,440.4296875
4.915062427520752,-931.640625,-906.25,-790.52734375,401.3671875,-834.9609375
4.918968677520752,555.6640625,543.45703125,-1000.0,-862.79296875,7.8125
4.928999900817871,-867.1875,-842.28515625,-585.44921875,813.96484375,-1000.0
4.932906150817871,747.0703125,639.6484375,462.40234375,-570.80078125,-949.21875
4.936812400817871,-725.09765625,-815.91796875,458.984375,-1000.0,372.55859375
4.940718650817871,-976.5625,-1000.0,-731.4453125,205.078125,-800.78125
4.944624900817871,574.70703125,489.2578125,-1000.0,-856.4453125,301.7578125
4.948531150817871,-869.62890625,-859.86328125,-598.6328125,799.31640625,-931.15234375
4.952437400817871,659.1796875,656.25,471.6796875,-542.96875,-1000.0
4.956343650817871,-773.92578125,-706.0546875,558.59375,-1000.0,158.203125
4.960249900817871,-959.9609375,-1000.0,-661.62109375,-187.98828125,-849.12109375
4.964156150817871,570.80078125,332.51953125,-1000.0,-969.7265625,511.71875
4.968062400817871,-885.7421875,-856.4453125,-658.203125,890.625,-762.6953125
4.971968650817871,827.1484375,801.7578125,287.59765625,-463.37890625,-1000.0
4.971999883651733,-599.12109375,-575.68359375,555.17578125,-1000.0,-357.421875
4.975906133651733,-1000.0,-1000.0,-568.84765625,-532.2265625,-988.76953125
4.979812383651733,415.52734375,108.3984375,-1000.0,856.93359375,631.8359375
4.983718633651733,-899.90234375,-885.7421875,-795.41015625,-961.9140625,-724.12109375
4.987624883651733,917.96875,831.54296875,117.67578125,-304.6875,-1000.0
4.991531133651733,-389.6484375,-526.85546875,593.26171875,-1000.0,-451.66015625
4.995437383651733,-1000.0,-1000.0,-355.95703125,-664.0625,956.0546875
4.999343633651733,224.12109375,-138.18359375,-1000.0,717.7734375,737.79296875
5.003249883651733,-898.92578125,-956.54296875,-867.1875,-867.67578125,-629.8828125
5.007156133651733,915.52734375,882.32421875,53.7109375,-21.484375,-1000.0
5.011062383651733,-290.52734375,-447.75390625,642.08984375,-1000.0,-740.234375
5.014968633651733,-1000.0,-1000.0,-287.109375,-786.62109375,771.97265625
5.0249998569488525,-85.44921875,-546.875,-1000.0,599.609375,925.78125
5.0289061069488525,999.0234375,849.609375,-863.76953125,-825.1953125,-606.4453125
5.0328123569488525,-994.62890625,-980.95703125,20.99609375,284.1796875,-1000.0
5.0367186069488525,28.80859375,-312.5,631.8359375,-1000.0,-828.61328125
5.0406248569488525,-1000.0,-1000.0,-162.59765625,-883.7890625,638.671875
5.0445311069488525,-392.578125,-701.66015625,-944.82421875,528.3203125,992.67578125
5.0484373569488525,911.1328125,702.63671875,-991.2109375,-820.3125,-542.48046875
5.0523436069488525,-943.359375,-886.23046875,-314.453125,555.6640625,-1000.0
5.0562498569488525,201.66015625,-92.28515625,580.56640625,-923.828125,-849.609375
5.0601561069488525,-1000.0,-1000.0,97.16796875,-928.7109375,566.40625
5.0640623569488525,-673.33984375,-819.82421875,-881.8359375,555.17578125,-914.0625
5.0679686069488525,768.5546875,566.89453125,-1000.0,-853.515625,-374.51171875
5.069999933242798,-892.578125,-833.0078125,-353.515625,701.66015625,-1000.0
5.073906183242798,412.59765625,183.10546875,577.1484375,-777.34375,-857.91015625
5.077812433242798,-958.0078125,-1000.0,101.5625,-1000.0,510.25390625
5.081718683242798,-853.515625,-876.953125,-887.6953125,491.2109375,-849.12109375
5.085624933242798,635.7421875,529.296875,-1000.0,-875.9765625,-132.32421875
5.089531183242798,-875.0,-828.125,-435.05859375,823.2421875,-1000.0
5.093437433242798,606.4453125,482.421875,566.40625,-591.796875,-893.06640625
5.097343683242798,-804.19921875,-930.17578125,401.3671875,-1000.0,417.96875
5.101249933242798,-949.21875,-919.921875,-745.60546875,350.09765625,-800.78125
5.105156183242798,562.98828125,550.29296875,-1000.0,-855.46875,352.5390625
5.109062433242798,-873.046875,-851.5625,-582.03125,809.5703125,-958.49609375
5.112968683242798,767.578125,689.94140625,438.96484375,-571.2890625,-1000.0
5.115000009536743,-704.1015625,-771.484375,411.62109375,-1000.0,351.07421875
5.118906259536743,-976.07421875,-1000.0,-729.98046875,238.76953125,-808.10546875
5.122812509536743,571.2890625,473.6328125,-1000.0,-873.046875,281.25
5.126718759536743,-872.0703125,-859.86328125,-648.4375,807.12890625,-919.921875
5.130625009536743,778.80859375,769.04296875,446.2890625,-545.41015625,-1000.0
5.134531259536743,-718.26171875,-651.3671875,561.5234375,-1000.0,-9.765625
5.138437509536743,-980.95703125,-1000.0,-651.85546875,-186.5234375,-866.2109375
5.142343759536743,582.03125,316.40625,-1000.0,-973.6328125,513.18359375
5.146250009536743,-894.04296875,-858.88671875,-663.0859375,901.85546875,-766.6015625
5.150156259536743,844.7265625,804.6875,283.69140625,-440.4296875,-1000.0
5.154062509536743,-571.77734375,-565.91796875,578.125,-1000.0,-433.59375
5.157968759536743,-1000.0,-1000.0,-549.8046875,-558.10546875,983.3984375
5.159999847412109,415.52734375,62.01171875,-1000.0,846.6796875,644.53125
5.163906097412109,-899.4140625,-897.4609375,-813.4765625,-957.51953125,-721.19140625
5.167812347412109,917.96875,836.42578125,108.88671875,-308.59375,-1000.0
5.171718597412109,-389.6484375,-508.7890625,666.9921875,-1000.0,-583.984375
5.175624847412109,-1000.0,-1000.0,-365.72265625,-702.1484375,895.99609375
5.179531097412109,226.5625,-285.64453125,-1000.0,682.12890625,867.67578125
5.183437347412109,-904.78515625,987.3046875,-878.41796875,-858.3984375,-598.14453125
5.187343597412109,930.17578125,917.48046875,36.1328125,-27.83203125,-1000.0
5.191249847412109,-250.48828125,-435.05859375,699.70703125,-1000.0,-673.828125
5.195156097412109,-1000.0,-1000.0,-282.71484375,-825.1953125,821.77734375
5.199062347412109,-156.73828125,-564.94140625,-998.046875,538.57421875,909.66796875
5.202968597412109,976.5625,832.03125,-953.125,-813.4765625,-605.95703125
5.204999923706055,-989.2578125,-962.890625,-188.96484375,359.86328125,-1000.0
5.208906173706055,85.9375,-271.484375,610.3515625,-1000.0,-839.84375
5.212812423706055,-1000.0,-1000.0,-159.66796875,-895.01953125,631.34765625
5.216718673706055,-501.46484375,-719.23828125,-962.40234375,535.64453125,982.91015625
5.220624923706055,863.76953125,685.546875,-999.0234375,-832.03125,-562.5
5.224531173706055,-924.31640625,-875.9765625,-264.16015625,615.72265625,-1000.0
5.228437423706055,309.08203125,-61.5234375,642.578125,-877.9296875,-849.12109375
5.232343673706055,-1000.0,-1000.0,61.5234375,-941.89453125,569.82421875
5.236249923706055,-697.265625,-832.03125,-896.97265625,561.03515625,-920.8984375
5.240156173706055,766.11328125,554.19921875,-1000.0,-858.88671875,-385.7421875
5.244062423706055,-887.6953125,-829.1015625,-362.79296875,720.21484375,-1000.0
5.247968673706055,451.66015625,204.58984375,620.1171875,-756.34765625,-859.375
5.25,-950.68359375,-1000.0,145.5078125,-1000.0,496.09375
5.25390625,-855.95703125,-879.39453125,-885.25390625,489.74609375,-838.8671875
5.2578125,634.27734375,529.78515625,-1000.0,-874.51171875,-78.125
5.26171875,-868.65234375,-826.171875,-503.90625,819.82421875,-1000.0
5.265625,629.39453125,488.28125,492.1875,-583.49609375,-899.90234375
5.26953125,-810.546875,-928.7109375,379.39453125,-1000.0,414.0625
5.2734375,-950.1953125,-928.7109375,-748.046875,304.6875,-797.36328125
5.27734375,561.5234375,537.59765625,-1000.0,-856.93359375,383.7890625
5.28125,-861.81640625,-847.65625,-564.94140625,805.6640625,-941.40625
5.28515625,718.75,682.6171875,469.7265625,-556.15234375,-1000.0
5.2890625,-759.27734375,-773.92578125,497.55859375,-1000.0,306.15234375
5.29296875,-965.33203125,-1000.0,-687.98828125,20.5078125,-807.12890625
5.294999837875366,568.84765625,448.2421875,-1000.0,-894.04296875,354.00390625
5.298906087875366,-871.58203125,-858.3984375,-663.0859375,815.91796875,-886.71875
5.302812337875366,772.4609375,773.92578125,407.71484375,-548.828125,-1000.0
5.306718587875366,-702.63671875,-638.671875,528.3203125,-1000.0,-53.7109375
5.310624837875366,-1000.0,-1000.0,-666.50390625,-292.48046875,-893.5546875
5.314531087875366,509.27734375,283.203125,-1000.0,978.515625,699.21875
5.318437337875366,-890.625,-857.91015625,-679.19921875,943.359375,-655.2734375
5.322343587875366,863.76953125,802.734375,270.99609375,-401.85546875,-1000.0
5.326249837875366,-530.76171875,-559.08203125,563.4765625,-1000.0,-438.96484375
5.330156087875366,-1000.0,-1000.0,-548.33984375,-558.10546875,960.9375
5.334062337875366,375.48828125,-13.18359375,-1000.0,845.21484375,829.1015625
5.337968587875366,-901.3671875,-911.1328125,-827.1484375,-951.66015625,-608.3984375
5.354999780654907,928.7109375,835.44921875,66.89453125,-290.0390625,-1000.0
5.358906030654907,-366.2109375,-520.99609375,660.64453125,-1000.0,-615.72265625
5.362812280654907,-1000.0,-1000.0,-334.9609375,-703.61328125,867.67578125
5.366718530654907,222.16796875,-362.3046875,-1000.0,683.59375,867.67578125
5.370624780654907,-896.484375,960.44921875,-900.390625,-857.91015625,-611.328125
5.374531030654907,912.59765625,924.8046875,1.953125,-29.78515625,-1000.0
5.378437280654907,-287.109375,-451.171875,685.546875,-1000.0,-732.421875
5.382343530654907,-1000.0,-1000.0,-190.91796875,-845.21484375,762.20703125
5.386249780654907,-173.33984375,-608.3984375,-970.703125,512.20703125,953.125
5.390156030654907,990.234375,804.6875,-919.43359375,-809.08203125,-592.7734375
5.394062280654907,995.60546875,-952.63671875,-159.66796875,358.88671875,-1000.0
5.397968530654907,-138.671875,-308.10546875,495.1171875,-1000.0,-625.0
5.3999998569488525,-1000.0,-1000.0,-107.421875,-894.53125,664.0625
5.4039061069488525,-551.7578125,-736.328125,-899.90234375,535.64453125,-935.546875
5.4078123569488525,822.75390625,658.203125,-1000.0,-829.58984375,-319.3359375
5.4117186069488525,-919.43359375,-868.1640625,-337.40234375,625.48828125,-1000.0
5.4156248569488525,200.1953125,-68.359375,557.6171875,-863.76953125,-857.91015625
5.4195311069488525,-1000.0,-1000.0,31.25,-846.19140625,559.5703125
5.4234373569488525,-759.27734375,-840.33203125,-904.296875,598.14453125,-896.484375
5.4273436069488525,703.125,539.0625,-1000.0,-880.859375,-331.0546875
5.4312498569488525,-875.0,-823.73046875,-409.1796875,754.39453125,-1000.0
5.4351561069488525,353.515625,217.28515625,597.65625,-720.703125,-865.72265625
5.4390623569488525,-958.49609375,-1000.0,164.0625,-1000.0,485.83984375
5.4429686069488525,-884.765625,-879.39453125,-877.9296875,455.56640625,-833.984375
5.44599986076355,564.453125,529.296875,-1000.0,-871.58203125,-43.9453125
5.44990611076355,-849.12109375,-821.77734375,-536.62109375,820.3125,-1000.0
5.45381236076355,667.96875,510.7421875,495.1171875,-584.9609375,-923.828125
5.45771861076355,-796.38671875,-910.15625,411.1328125,-1000.0,395.99609375
5.46162486076355,-857.91015625,-843.26171875,-753.90625,304.6875,-797.8515625
5.46553111076355,600.09765625,560.05859375,-1000.0,-856.93359375,293.9453125
5.46943736076355,-883.7890625,-864.74609375,-568.84765625,804.6875,-973.14453125
5.47334361076355,750.0,700.68359375,467.28515625,-554.19921875,-1000.0
5.47724986076355,-742.1875,-758.7890625,519.53125,-1000.0,285.15625
5.48115611076355,-970.703125,-1000.0,-638.18359375,3.90625,-807.12890625
5.48506236076355,571.2890625,415.0390625,-1000.0,-896.484375,386.23046875
5.48896861076355,-874.0234375,-857.421875,-677.734375,813.96484375,-861.81640625
5.490000009536743,780.2734375,778.80859375,393.5546875,-544.43359375,-1000.0
5.493906259536743,-688.4765625,-625.0,533.203125,-1000.0,-103.515625
5.497812509536743,-1000.0,-1000.0,-634.27734375,-376.46484375,-909.1796875
5.501718759536743,497.0703125,241.2109375,-1000.0,943.84765625,625.0
5.505625009536743,-887.6953125,-861.81640625,-751.953125,968.26171875,-696.2890625
5.509531259536743,859.86328125,805.6640625,258.30078125,-386.23046875,-1000.0
5.513437509536743,-520.01953125,-552.24609375,619.62890625,-1000.0,-416.50390625
5.517343759536743,-1000.0,-1000.0,-512.6953125,-628.41796875,973.6328125
5.521250009536743,317.3828125,-73.2421875,-1000.0,781.25,851.07421875
5.525156259536743,-886.71875,-928.22265625,-843.26171875,-918.9453125,-589.84375
5.529062509536743,889.16015625,844.7265625,32.71484375,-250.48828125,-1000.0
5.532968759536743,-400.390625,-514.16015625,650.390625,-1000.0,-645.99609375
5.534999847412109,-1000.0,-1000.0,-311.03515625,-743.1640625,841.796875
5.538906097412109,46.875,-422.8515625,-1000.0,641.11328125,894.04296875
5.542812347412109,-934.08203125,933.59375,-924.8046875,-847.16796875,-604.98046875
5.546718597412109,933.59375,943.359375,-55.6640625,-1.46484375,-1000.0
5.550624847412109,-291.9921875,-437.98828125,662.109375,-1000.0,-767.08984375
5.554531097412109,-1000.0,-1000.0,-161.62109375,-849.609375,717.7734375
5.558437347412109,-251.953125,-641.11328125,-962.890625,514.6484375,965.33203125
5.562343597412109,943.359375,776.3671875,-935.05859375,-810.05859375,-564.453125
5.566249847412109,-979.98046875,-937.98828125,-32.71484375,358.88671875,-1000.0
5.570156097412109,77.1484375,-262.6953125,658.203125,-1000.0,-842.28515625
5.574062347412109,-1000.0,-1000.0,-144.04296875,-894.53125,609.86328125
5.577968597412109,-586.9140625,-764.6484375,-937.98828125,536.1328125,-980.46875
5.579999923706055,839.84375,631.34765625,-1000.0,-834.47265625,-499.0234375
5.583906173706055,-925.29296875,-859.375,-374.0234375,631.8359375,-1000.0
5.587812423706055,199.70703125,-36.62109375,566.89453125,-865.72265625,-845.21484375
5.591718673706055,-1000.0,-1000.0,80.56640625,-945.80078125,537.59765625
5.595624923706055,-760.7421875,-847.65625,-897.4609375,565.4296875,-863.76953125
5.599531173706055,705.078125,529.296875,-1000.0,-869.62890625,-222.65625
5.603437423706055,-876.953125,-821.77734375,-383.30078125,764.6484375,-1000.0
5.607343673706055,335.44921875,286.62109375,578.125,-681.640625,-876.953125
5.611249923706055,-952.63671875,-1000.0,184.08203125,-1000.0,473.14453125
5.615156173706055,-901.3671875,-889.6484375,-859.86328125,399.4140625,-820.3125
5.619062423706055,538.0859375,534.1796875,-1000.0,-865.234375,17.08984375
5.622968673706055,-846.19140625,-830.56640625,-409.66796875,815.91796875,-1000.0
5.625,658.69140625,548.33984375,524.90234375,-575.1953125,-954.58984375
5.62890625,-810.546875,-891.11328125,351.07421875,-1000.0,355.95703125
5.6328125,-953.61328125,-956.0546875,-747.55859375,232.91015625,-798.828125
5.63671875,564.94140625,519.04296875,-1000.0,-857.421875,288.0859375
5.640625,-869.62890625,-851.07421875,-623.53515625,807.12890625,-972.65625
5.64453125,754.39453125,709.9609375,437.01171875,-554.6875,-1000.0
5.6484375,-729.4921875,-731.93359375,545.41015625,-1000.0,270.5078125
5.65234375,-974.12109375,-1000.0,-642.578125,-36.62109375,-811.5234375
5.65625,574.70703125,389.16015625,-1000.0,-907.71484375,427.734375
5.66015625,-880.859375,-856.93359375,-693.359375,819.3359375,-835.44921875
5.6640625,805.17578125,785.64453125,380.37109375,-547.36328125,-1000.0
5.66796875,-653.3203125,-609.86328125,564.94140625,-1000.0,-130.859375
5.671000003814697,-1000.0,-1000.0,-616.69921875,-375.9765625,-917.96875
5.674906253814697,491.69921875,199.21875,-1000.0,943.84765625,625.0
5.678812503814697,-891.6015625,-868.1640625,-741.2109375,967.7734375,-688.96484375
5.682718753814697,875.0,810.05859375,194.82421875,-386.23046875,-1000.0
5.686625003814697,-496.09375,-544.921875,592.7734375,-1000.0,-513.18359375
5.690531253814697,-1000.0,-1000.0,-479.98046875,-634.765625,925.29296875
5.694437503814697,318.359375,-129.8828125,-1000.0,769.53125,883.30078125
5.698343753814697,-887.6953125,-946.77734375,-842.7734375,-905.2734375,-577.63671875
5.702250003814697,888.18359375,856.4453125,19.04296875,-219.7265625,-1000.0
5.706156253814697,-383.30078125,-507.8125,636.23046875,-1000.0,-663.0859375
5.710062503814697,-1000.0,-1000.0,-293.45703125,-770.01953125,830.56640625
5.713968753814697,22.4609375,-460.44921875,-999.51171875,598.14453125,899.4140625
5.729999780654907,-940.91796875,911.62109375,-935.05859375,-829.58984375,-606.93359375
5.733906030654907,931.15234375,961.42578125,-73.73046875,120.1171875,-1000.0
5.737812280654907,-233.3984375,-414.55078125,659.1796875,-1000.0,-760.7421875
5.741718530654907,-1000.0,-1000.0,-182.6171875,-870.60546875,716.30859375
5.745624780654907,-365.72265625,-651.3671875,-984.86328125,528.3203125,975.5859375
5.749531030654907,915.0390625,757.8125,-931.640625,-814.94140625,-540.0390625
5.753437280654907,975.5859375,-999.0234375,-29.296875,301.26953125,-1000.0
5.757343530654907,-12.6953125,-256.8359375,665.0390625,-1000.0,-831.54296875
5.761249780654907,-1000.0,-1000.0,-51.26953125,-885.7421875,614.2578125
5.765156030654907,-641.6015625,-789.55078125,-895.99609375,531.25,-963.37890625
5.769062280654907,776.85546875,606.93359375,-1000.0,-833.0078125,-464.84375
5.772968530654907,-896.484375,-850.09765625,-375.0,631.8359375,-1000.0
5.7749998569488525,287.109375,27.34375,558.59375,-865.72265625,-849.12109375
5.7789061069488525,-1000.0,-1000.0,186.03515625,-945.80078125,546.38671875
5.7828123569488525,-791.9921875,-859.375,-832.51953125,565.4296875,-882.32421875
5.7867186069488525,692.87109375,526.85546875,-1000.0,-869.62890625,-268.06640625
5.7906248569488525,-878.41796875,-821.77734375,-415.52734375,764.6484375,-1000.0
5.7945311069488525,337.40234375,319.82421875,582.51953125,-681.640625,-871.09375
5.7984373569488525,-941.40625,-1000.0,319.3359375,-1000.0,471.6796875
5.8023436069488525,-903.3203125,-894.04296875,-790.0390625,399.4140625,-824.70703125
5.8062498569488525,538.57421875,536.1328125,-1000.0,-864.2578125,60.546875
5.8101561069488525,-846.19140625,-833.0078125,-420.41015625,813.96484375,-1000.0
5.8140623569488525,651.3671875,579.58984375,517.578125,-570.80078125,-967.28515625
5.8179686069488525,-808.10546875,-867.67578125,370.60546875,-1000.0,339.35546875
5.819999933242798,-950.68359375,-974.12109375,-729.98046875,205.078125,-796.875
5.823906183242798,559.5703125,500.48828125,-1000.0,-856.4453125,364.74609375
5.827812433242798,-856.93359375,-850.5859375,-633.30078125,799.31640625,-929.19921875
5.831718683242798,716.30859375,716.30859375,398.92578125,-542.96875,-1000.0
5.835624933242798,-784.1796875,-720.703125,512.20703125,-1000.0,194.3359375
5.839531183242798,-965.8203125,-1000.0,-639.6484375,-194.82421875,-827.63671875
5.843437433242798,574.70703125,366.2109375,-1000.0,-952.1484375,638.18359375
5.847343683242798,-881.8359375,-855.46875,-687.5,838.8671875,-753.41796875
5.851249933242798,804.19921875,786.1328125,401.85546875,-548.828125,-1000.0
5.855156183242798,-629.39453125,-600.5859375,614.74609375,-1000.0,44.921875
5.859062433242798,-1000.0,-1000.0,-597.16796875,-506.34765625,-891.6015625
5.862968683242798,403.3203125,147.4609375,-1000.0,887.20703125,663.0859375
5.865000009536743,-873.046875,-873.53515625,-696.77734375,990.234375,-640.13671875
5.868906259536743,840.33203125,812.98828125,299.8046875,-397.4609375,-1000.0
5.872812509536743,-535.15625,-552.24609375,601.5625,-1000.0,-532.2265625
5.876718759536743,-1000.0,-1000.0,-497.0703125,-648.4375,915.52734375
5.880625009536743,229.4921875,-110.3515625,-1000.0,756.8359375,836.9140625
5.884531259536743,-860.83984375,-931.640625,-840.8203125,-902.34375,-605.95703125
5.888437509536743,813.4765625,838.37890625,44.921875,-220.703125,-1000.0
5.892343759536743,-527.34375,-521.97265625,670.8984375,-1000.0,-671.38671875
5.896250009536743,-1000.0,-1000.0,-94.23828125,-770.99609375,825.1953125
5.900156259536743,-107.421875,-543.45703125,-916.9921875,598.6328125,915.0390625
5.904062509536743,-940.91796875,882.8125,-983.88671875,-830.56640625,-596.19140625
5.907968759536743,862.79296875,950.1953125,-149.4140625,111.328125,-1000.0
5.909999847412109,-487.3046875,-483.88671875,611.81640625,-1000.0,-770.01953125
5.913906097412109,-1000.0,-1000.0,-119.62890625,-865.72265625,689.453125
5.917812347412109,-495.1171875,-715.33203125,-939.94140625,522.94921875,-989.2578125
5.921718597412109,893.06640625,724.12109375,-992.67578125,-807.12890625,-482.421875
5.925624847412109,987.79296875,-945.80078125,-291.015625,352.5390625,-1000.0
5.929531097412109,-398.4375,-374.0234375,567.87109375,-1000.0,-803.22265625
5.933437347412109,-1000.0,-1000.0,-3.90625,-794.921875,573.2421875
5.937343597412109,-685.05859375,-820.80078125,-903.3203125,570.3125,-857.421875
5.941249847412109,728.515625,570.3125,-1000.0,-849.12109375,-137.20703125
5.945156097412109,-902.83203125,-862.3046875,-416.015625,632.8125,-1000.0
5.949062347412109,-249.51171875,-186.5234375,493.65234375,-850.09765625,-855.46875
5.952968597412109,-1000.0,-1000.0,228.515625,-1000.0,544.43359375
5.955999851226807,-794.921875,-841.796875,-792.96875,477.5390625,-842.28515625
5.959906101226807,577.1484375,519.53125,-1000.0,-855.95703125,-69.82421875
5.963812351226807,-828.125,-814.94140625,-479.4921875,756.34765625,-1000.0
5.967718601226807,20.01953125,122.0703125,527.83203125,-666.50390625,-868.1640625
5.971624851226807,-1000.0,-1000.0,320.80078125,-1000.0,484.375
5.975531101226807,-754.39453125,-776.85546875,-760.25390625,302.734375,-808.59375
5.979437351226807,550.29296875,539.55078125,-1000.0,-858.88671875,278.80859375
5.983343601226807,-827.1484375,-831.0546875,-578.61328125,809.08203125,-999.51171875
5.987249851226807,366.69921875,476.5625,405.76171875,-561.5234375,-974.609375
5.991156101226807,-1000.0,-932.12890625,419.43359375,-1000.0,379.39453125
5.995062351226807,-894.53125,-980.46875,-684.5703125,71.77734375,-808.10546875
5.998968601226807,535.64453125,441.89453125,-1000.0,-884.27734375,537.59765625
6.000999927520752,-833.984375,-834.9609375,-651.3671875,815.4296875,-853.02734375
