Timestamp,C3,CZ,C4,FCZ,FC3,CP4,CPZ,CP3,FC4
0.0,-9.991589546203613,-4.1986284255981445,-5.079204559326172,-1.6582255363464355,-5.3185930252075195,-8.627660751342773,-8.979307174682617,-13.095627784729004,-1.452614665031433
0.0025777999544516206,-9.141219139099121,-2.717357635498047,-2.8978147506713867,-1.0933339595794678,-5.187423229217529,-5.668399810791016,-5.843941688537598,-11.519486427307129,-0.19744773209095
0.005844300030730665,-7.930340766906738,-0.8968601822853088,-0.40744319558143616,-0.4126463830471039,-4.693852424621582,-2.478738307952881,-2.5327823162078857,-9.714251518249512,1.2468897104263306
0.008934700046665967,-6.412473678588867,1.1909657716751099,2.2596633434295654,0.4034467339515686,-3.848707914352417,0.8602590560913086,0.8834030628204346,-7.721826553344727,2.8015546798706055
0.011029900051653385,-4.696476459503174,3.3968024253845215,4.911348819732666,1.320573329925537,-2.7299230098724365,4.217219829559326,4.290581703186035,-5.620004177093506,4.333570957183838
0.014038800029084086,-2.928061008453369,5.521688938140869,7.333871364593506,2.2536704540252686,-1.4678705930709839,7.431993007659912,7.543095111846924,-3.5125043392181396,5.683740139007568
0.017068500048480928,-1.2556140422821045,7.35895299911499,9.335005760192871,3.0883474349975586,-0.21416543424129486,10.344168663024902,10.484498023986816,-1.5074824094772339,6.70134973526001
0.019250000012107193,0.18819659948349,8.734366416931152,10.77972412109375,3.7048897743225098,0.8826586008071899,12.820758819580078,12.968774795532227,0.29786258935928345,7.277013778686523
0.02211170003283769,1.3067736625671387,9.540767669677734,11.612553596496582,4.009281158447266,1.7035584449768066,14.77441692352295,14.880470275878906,1.8327581882476807,7.363096237182617
0.025238399975933135,2.0481622219085693,9.757071495056152,11.860953330993652,3.9572818279266357,2.176267147064209,16.17238426208496,16.152502059936523,3.05819034576416,6.983019828796387
0.02805890003219247,2.410496950149536,9.451037406921387,11.625401496887207,3.569218397140503,2.2856688499450684,17.03434181213379,16.779008865356445,3.9745194911956787,6.226925373077393
0.031132600037381053,2.43983793258667,8.765143394470215,11.05836296081543,2.9285051822662354,2.0743863582611084,17.424396514892578,16.821605682373047,4.619344711303711,5.23429536819458
0.033962300047278404,2.220836639404297,7.884737014770508,10.335012435913086,2.1641502380371094,1.632061243057251,17.436553955078125,16.401514053344727,5.059263229370117,4.1681013107299805
0.037109100027009845,1.8636835813522339,7.001193523406982,9.623851776123047,1.420285940170288,1.0764493942260742,17.179351806640625,15.682568550109863,5.378770351409912,3.18580961227417
0.04037980001885444,1.485876202583313,6.270802021026611,9.057677268981934,0.8204692602157593,0.5277066826820374,16.757596969604492,14.839827537536621,5.662258148193359,2.4103472232818604
0.04306619998533279,1.1929048299789429,5.786034107208252,8.714409828186035,0.44075480103492737,0.08454535156488419,16.258895874023438,14.026119232177734,5.978559970855713,1.9107681512832642
0.04625300003681332,1.0601720809936523,5.561397075653076,8.604629516601562,0.29266735911369324,-0.19834467768669128,15.74062442779541,13.340251922607422,6.3663763999938965,1.6926764249801636
0.04855359997600317,1.1243687868118286,5.543153285980225,8.67785930633545,0.32946208119392395,-0.3142204284667969,15.226757049560547,12.811759948730469,6.831923961639404,1.705579400062561
0.05153049994260073,1.3816500902175903,5.634070873260498,8.840206146240234,0.46810972690582275,-0.2989555895328522,14.709364891052246,12.401448249816895,7.352283477783203,1.8611940145492554
0.054542999947443604,1.7908782958984375,5.727308750152588,8.980576515197754,0.61962890625,-0.21432706713676453,14.15811538696289,12.020081520080566,7.88499641418457,2.059948205947876
0.05737499997485429,2.284154176712036,5.7342848777771,8.99487590789795,0.7152879238128662,-0.1271190196275711,13.528643608093262,11.55456829071045,8.379055976867676,2.2114765644073486
0.06055880000349134,2.776401996612549,5.60386848449707,8.811418533325195,0.7248906493186951,-0.09111364185810089,12.777250289916992,10.900390625,8.784629821777344,2.255296468734741
0.06350579997524619,3.1795032024383545,5.3255085945129395,8.401129722595215,0.6575916409492493,-0.1348891705274582,11.869621276855469,9.98543930053711,9.058853149414062,2.166875123977661
0.06621900002937764,3.4127449989318848,4.915835380554199,7.775573253631592,0.5484446287155151,-0.2614481747150421,10.787052154541016,8.78237533569336,9.165192604064941,1.9552371501922607
0.06920000002719462,3.413418769836426,4.399631023406982,6.974434852600098,0.43745172023773193,-0.45511308312416077,9.527486801147461,7.306534767150879,9.071669578552246,1.6512130498886108
0.07240309996996075,3.1498610973358154,3.794520854949951,6.051628112792969,0.35194283723831177,-0.6905381083488464,8.105006217956543,5.607081413269043,8.75019645690918,1.2971781492233276
0.07525490003172308,2.6312453746795654,3.1022398471832275,5.0597333908081055,0.2960156500339508,-0.9411278367042542,6.546380043029785,3.7535903453826904,8.181532859802246,0.934831440448761
0.07836970000062138,1.9084445238113403,2.309669017791748,4.039381504058838,0.2498892992734909,-1.1852415800094604,4.886065483093262,1.8196842670440674,7.357016563415527,0.5952366590499878
0.08140509994700551,1.0687326192855835,1.3991878032684326,3.0162765979766846,0.1795213222503662,-1.4061167240142822,3.1608054637908936,-0.12734673917293549,6.2858147621154785,0.29494285583496094
0.08438849996309727,0.2172263264656067,0.36047694087028503,2.0019941329956055,0.048912469297647476,-1.5924201011657715,1.4049065113067627,-2.0310425758361816,4.998068332672119,0.033180125057697296
0.08717509999405593,-0.5496640801429749,-0.8028877973556519,0.9949455857276917,-0.17058824002742767,-1.738120436668396,-0.35695356130599976,-3.852022409439087,3.539877414703369,-0.21200397610664368
0.09024429996497929,-1.1731780767440796,-2.0696470737457275,-0.015602417290210724,-0.4961090087890625,-1.8457090854644775,-2.1121842861175537,-5.568010330200195,1.9674983024597168,-0.4802209436893463
0.09313649998512119,-1.648930549621582,-3.403747320175171,-1.0444058179855347,-0.9310550093650818,-1.9278159141540527,-3.8598949909210205,-7.172324180603027,0.33913281559944153,-0.8217974901199341
0.09619620000012219,-2.0363407135009766,-4.764039993286133,-2.1086220741271973,-1.473005771636963,-2.0137438774108887,-5.609951019287109,-8.676251411437988,-1.2985069751739502,-1.290582299232483
0.09865359996911138,-2.4334280490875244,-6.106015205383301,-3.2164595127105713,-2.1119818687438965,-2.1426424980163574,-7.3709397315979,-10.100954055786133,-2.909304618835449,-1.9260417222976685
0.101761500001885,-2.947652816772461,-7.388420581817627,-4.360753059387207,-2.8327744007110596,-2.3584036827087402,-9.142488479614258,-11.474119186401367,-4.471583366394043,-2.74029278755188
0.10464369994588196,-3.6521899700164795,-8.570183753967285,-5.509931564331055,-3.6083121299743652,-2.6927428245544434,-10.904106140136719,-12.817967414855957,-5.96631383895874,-3.704051971435547
0.10774500004481524,-4.555509567260742,-9.610847473144531,-6.605148792266846,-4.3963470458984375,-3.1531784534454346,-12.608833312988281,-14.139487266540527,-7.373499393463135,-4.745019435882568
0.11078760004602373,-5.586719512939453,-10.47064208984375,-7.569023609161377,-5.138721466064453,-3.711137533187866,-14.187662124633789,-15.424251556396484,-8.664024353027344,-5.75759744644165
0.11389409995172173,-6.610024929046631,-11.113733291625977,-8.32104206085205,-5.765876770019531,-4.30222749710083,-15.559240341186523,-16.63294219970703,-9.800110816955566,-6.622540473937988
0.11672369996085763,-7.458542823791504,-11.511307716369629,-8.79780387878418,-6.206582546234131,-4.834746360778809,-16.64107894897461,-17.704143524169922,-10.738420486450195,-7.232655048370361
0.11972079996485263,-7.980417728424072,-11.646224975585938,-8.97226333618164,-6.402562618255615,-5.208574295043945,-17.365718841552734,-18.56401824951172,-11.439010620117188,-7.517919063568115
0.12293359998147935,-8.081572532653809,-11.517863273620605,-8.867024421691895,-6.322215557098389,-5.339689254760742,-17.69173812866211,-19.139766693115234,-11.873502731323242,-7.463939189910889
0.12567920004948974,-7.758207321166992,-11.143643379211426,-8.552422523498535,-5.970114707946777,-5.182981014251709,-17.612836837768555,-19.376018524169922,-12.035455703735352,-7.116093635559082
0.12867959996219724,-7.090490341186523,-10.552786827087402,-8.127219200134277,-5.384637355804443,-4.7387919425964355,-17.151933670043945,-19.242416381835938,-11.938264846801758,-6.565654754638672
0.13172449998091906,-6.217983722686768,-9.782514572143555,-7.691958904266357,-4.62800407409668,-4.052193641662598,-16.35506248474121,-18.737085342407227,-11.611316680908203,-5.927393913269043
0.13467709999531507,-5.296753883361816,-8.869282722473145,-7.318155765533447,-3.770944118499756,-3.1969287395477295,-15.277362823486328,-17.88149070739746,-11.089970588684082,-5.308659553527832
0.13763919996563345,-4.450431823730469,-7.841850757598877,-7.0228495597839355,-2.874133348464966,-2.252331018447876,-13.96796989440918,-16.707260131835938,-10.404685974121094,-4.780100345611572
0.14073240000288934,-3.7317259311676025,-6.717548847198486,-6.7608208656311035,-1.9756155014038086,-1.2805103063583374,-12.460612297058105,-15.243549346923828,-9.571088790893555,-4.3596296310424805
0.14382580004166812,-3.1101574897766113,-5.501159191131592,-6.4307942390441895,-1.086256980895996,-0.3127358555793762,-10.766165733337402,-13.506219863891602,-8.587421417236328,-4.007925987243652
0.14671080000698566,-2.4879648685455322,-4.190168380737305,-5.903425216674805,-0.19653283059597015,0.6497954726219177,-8.876707077026367,-11.497919082641602,-7.442563533782959,-3.643643617630005
0.14970599999651313,-1.7375963926315308,-2.781903028488159,-5.055133819580078,0.7092840075492859,1.6232450008392334,-6.776030540466309,-9.215673446655273,-6.125327110290527,-3.1681969165802
0.1527057000203058,-0.753473699092865,-1.282904028892517,-3.8041253089904785,1.6367435455322266,2.620532989501953,-4.453281879425049,-6.665648937225342,-4.640810966491699,-2.495323657989502
0.155903400038369,0.5001539587974548,0.2820410132408142,-2.139082908630371,2.5670180320739746,3.6269774436950684,-1.9228487014770508,-3.8818912506103516,-3.0249269008636475,-1.5798412561416626
0.15875269996467978,1.9624851942062378,1.8633503913879395,-0.13268040120601654,3.450983762741089,4.589247703552246,0.7605431079864502,-0.9395869970321655,-1.3495469093322754,-0.435360848903656
0.16172329999972135,3.482978582382202,3.393720865249634,2.0713393688201904,4.220121383666992,5.419731616973877,3.5013036727905273,2.047314167022705,0.2840850353240967,0.869613528251648
0.1646708999760449,4.851212024688721,4.792946815490723,4.276886463165283,4.799631595611572,6.011614799499512,6.167640686035156,4.935544490814209,1.7600231170654297,2.220965623855591
0.16766649996861815,5.859495639801025,5.986359119415283,6.276244163513184,5.132598876953125,6.271919250488281,8.612507820129395,7.578832149505615,2.973283052444458,3.487332582473755
0.170671800035052,6.355746746063232,6.919876575469971,7.88868522644043,5.196400165557861,6.1469855308532715,10.700037002563477,9.854212760925293,3.8506546020507812,4.547595977783203
0.1738061000360176,6.292963981628418,7.573403358459473,8.993562698364258,5.013195991516113,5.646944046020508,12.331987380981445,11.685861587524414,4.368013381958008,5.315760135650635
0.1767153999535367,5.740751266479492,7.96531343460083,9.55052375793457,4.6453857421875,4.84697151184082,13.46696949005127,13.05732536315918,4.551948070526123,5.754770755767822
0.17982359998859465,4.867058277130127,8.150055885314941,9.605242729187012,4.183097839355469,3.8754870891571045,14.128996849060059,14.010120391845703,4.471888542175293,5.881285190582275
0.1822459000395611,3.893991470336914,8.20734691619873,9.276700019836426,3.7249996662139893,2.8870391845703125,14.400195121765137,14.630921363830566,4.2225847244262695,5.757444381713867
0.18463289993815124,3.0390584468841553,8.22518539428711,8.73110294342041,3.3581087589263916,2.0292718410491943,14.400886535644531,15.0292387008667,3.903066873550415,5.474643230438232
0.18759220000356436,2.46738600730896,8.284259796142578,8.149456977844238,3.1460671424865723,1.4168944358825684,14.265267372131348,15.315197944641113,3.6022698879241943,5.135660648345947
0.1906654000049457,2.260676383972168,8.444062232971191,7.6931562423706055,3.1216049194335938,1.1130475997924805,14.113839149475098,15.580482482910156,3.39188551902771,4.83565092086792
0.19362180004827678,2.415839433670044,8.73221492767334,7.473451614379883,3.2878119945526123,1.1252357959747314,14.031747817993164,15.8857421875,3.3267674446105957,4.644382953643799
0.19656559999566525,2.853473663330078,9.13753890991211,7.529943943023682,3.619367837905884,1.4077069759368896,14.053277969360352,16.25031280517578,3.4428646564483643,4.593576431274414
0.1995805000187829,3.4643759727478027,9.617416381835938,7.829354286193848,4.0744147300720215,1.8849173784255981,14.16421127319336,16.658613204956055,3.770087242126465,4.676819324493408
0.2025897999992594,4.130547523498535,10.097806930541992,8.269171714782715,4.593955993652344,2.4610493183135986,14.302462577819824,17.057601928710938,4.320573329925537,4.846703052520752
0.20576140005141497,4.752391338348389,10.485936164855957,8.702712059020996,5.108286380767822,3.0381295680999756,14.374823570251465,17.367061614990234,5.0847883224487305,5.02625036239624
0.20869769994169474,5.259031772613525,10.68493366241455,8.969133377075195,5.541832447052002,3.526998519897461,14.274524688720703,17.490278244018555,6.020016193389893,5.124092102050781
0.21082539996132255,5.609864711761475,10.609102249145508,8.9276704788208,5.820072174072266,3.8560197353363037,13.901548385620117,17.328323364257812,7.046237468719482,5.053999900817871
0.2139106000540778,5.790712833404541,10.20203685760498,8.48703670501709,5.880550384521484,3.977437734603882,13.1822509765625,16.79949378967285,8.051990509033203,4.7551679611206055
0.21682610001880676,5.805415153503418,9.447628021240234,7.623525142669678,5.683173656463623,3.8714065551757812,12.08314323425293,15.855164527893066,8.908101081848145,4.20639705657959
0.21982829994522035,5.672939777374268,8.37657642364502,6.3849077224731445,5.219607353210449,3.5477335453033447,10.619389533996582,14.492535591125488,9.492989540100098,3.4331233501434326
0.2230423999717459,5.42234468460083,7.059408664703369,4.8744215965271,4.516963005065918,3.043705940246582,8.850883483886719,12.758282661437988,9.718708038330078,2.5017590522766113
0.2258733999915421,5.085967063903809,5.591901779174805,3.226116895675659,3.631927251815796,2.415220260620117,6.869851112365723,10.738340377807617,9.546753883361816,1.5036604404449463
0.22903259994927794,4.689073085784912,4.071722984313965,1.571248173713684,2.6378984451293945,1.7221031188964844,4.780888557434082,8.538954734802246,8.991788864135742,0.5324040055274963
0.23174369998741895,4.242727756500244,2.5770442485809326,0.009549017064273357,1.6079585552215576,1.01374089717865,2.6804754734039307,6.2620673179626465,8.111367225646973,-0.3407905101776123
0.23463610000908375,3.729581594467163,1.1481424570083618,-1.4104455709457397,0.5965225100517273,0.31281644105911255,0.6355242729187012,3.980368137359619,6.980855941772461,-1.0862548351287842
0.23778870003297925,3.1130383014678955,-0.2151392549276352,-2.691293716430664,-0.36942315101623535,-0.3873143792152405,-1.32150399684906,1.7275214195251465,5.674839019775391,-1.7211189270019531
0.24087830004282296,2.3426482677459717,-1.5463342666625977,-3.8734679222106934,-1.2929333448410034,-1.119768500328064,-3.1919968128204346,-0.5013921856880188,4.247975826263428,-2.3022003173828125
0.24390570004470646,1.365978479385376,-2.894447088241577,-5.011978626251221,-2.1985056400299072,-1.9320509433746338,-4.997116565704346,-2.733236312866211,2.7273635864257812,-2.906337022781372
0.24696929997298867,0.1558651626110077,-4.300127983093262,-6.149313926696777,-3.1159842014312744,-2.86320161819458,-6.759728908538818,-4.992166996002197,1.122735857963562,-3.6037979125976562
0.2497830999782309,-1.2748253345489502,-5.775228500366211,-7.295489311218262,-4.0615339279174805,-3.9234063625335693,-8.48564624786377,-7.274745941162109,-0.5586286783218384,-4.431944370269775
0.2529717000434175,-2.866237163543701,-7.292133331298828,-8.421608924865723,-5.025308609008789,-5.0816521644592285,-10.153882026672363,-9.536273002624512,-2.29752516746521,-5.379353046417236
0.2561204000376165,-4.51913595199585,-8.78531265258789,-9.469104766845703,-5.967113971710205,-6.266201972961426,-11.71963882446289,-11.69291877746582,-4.053815841674805,-6.384997367858887
0.25866289995610714,-6.105971336364746,-10.161348342895508,-10.366290092468262,-6.8210673332214355,-7.372880458831787,-13.123808860778809,-13.636658668518066,-5.762232780456543,-7.350125312805176
0.2619305000407621,-7.498821258544922,-11.317001342773438,-11.049188613891602,-7.507822513580322,-8.288065910339355,-14.305800437927246,-15.260701179504395,-7.344287395477295,-8.161721229553223
0.26459629996679723,-8.588220596313477,-12.15738582611084,-11.478342056274414,-7.952028751373291,-8.911505699157715,-15.219666481018066,-16.484600067138672,-8.719101905822754,-8.720440864562988
0.26686019997578114,-9.301998138427734,-12.6098051071167,-11.642928123474121,-8.095953941345215,-9.175436973571777,-15.83963394165039,-17.269725799560547,-9.818441390991211,-8.959494590759277
0.2695714000146836,-9.615995407104492,-12.63304328918457,-11.554591178894043,-7.910630226135254,-9.057781219482422,-16.156269073486328,-17.62105369567871,-10.598469734191895,-8.856922149658203
0.2727525000227615,-9.548192977905273,-12.218655586242676,-11.232928276062012,-7.396165370941162,-8.579689025878906,-16.167816162109375,-17.574951171875,-11.040631294250488,-8.431197166442871
0.275580000015907,-9.15417194366455,-11.388544082641602,-10.688286781311035,-6.577700138092041,-7.797937393188477,-15.868646621704102,-17.17863655090332,-11.151750564575195,-7.727710723876953
0.2785810000495985,-8.516432762145996,-10.192122459411621,-9.915912628173828,-5.501457691192627,-6.793557167053223,-15.244404792785645,-16.472793579101562,-10.959372520446777,-6.805523872375488
0.2808340999763459,-7.720709800720215,-8.698394775390625,-8.895827293395996,-4.225488185882568,-5.651224136352539,-14.271331787109375,-15.479103088378906,-10.500130653381348,-5.721775531768799
0.2832164999563247,-6.850092887878418,-6.9958977699279785,-7.611260414123535,-2.820051431655884,-4.454791069030762,-12.932835578918457,-14.206295013427734,-9.817878723144531,-4.530079364776611
0.2857635000254959,-5.9715962409973145,-5.185964584350586,-6.067512035369873,-1.36598801612854,-3.2781119346618652,-11.23627758026123,-12.662899017333984,-8.959183692932129,-3.2824666500091553
0.2878934999462217,-5.131567478179932,-3.3793609142303467,-4.314742565155029,0.04377158358693123,-2.1864426136016846,-9.233365058898926,-10.878633499145508,-7.973871231079102,-2.0386195182800293
0.29090120003093034,-4.352253437042236,-1.6862096786499023,-2.453813076019287,1.3096683025360107,-1.234635353088379,-7.02664852142334,-8.917370796203613,-6.91316032409668,-0.868493914604187
0.2937483999412507,-3.636247158050537,-0.20505855977535248,-0.6286073327064514,2.3356025218963623,-0.4664672017097473,-4.762948989868164,-6.878602027893066,-5.829777717590332,0.15121600031852722
0.296513200039044,-2.969694137573242,0.9893189072608948,0.9989125728607178,3.0446794033050537,0.08910501003265381,-2.6114604473114014,-4.883887767791748,-4.7731242179870605,0.9497203826904297
0.299825599999167,-2.333603858947754,1.853460669517517,2.281442165374756,3.3957831859588623,0.42061108350753784,-0.7330833077430725,-3.0534451007843018,-3.7868003845214844,1.4790921211242676
0.3019623999716714,-1.7097270488739014,2.3828237056732178,3.1224300861358643,3.3989524841308594,0.5410889983177185,0.7569676637649536,-1.4747003316879272,-2.90031099319458,1.7315824031829834
0.3049335000105202,-1.0828477144241333,2.6118459701538086,3.5017895698547363,3.118842601776123,0.4907739758491516,1.8168201446533203,-0.17950835824012756,-2.122713565826416,1.7478440999984741
0.30775989999528974,-0.4496361315250397,2.60736346244812,3.4812984466552734,2.663980007171631,0.3303930461406708,2.4888246059417725,0.8642908334732056,-1.4432052373886108,1.6096433401107788
0.31080580002162606,0.18536022305488586,2.4604454040527344,3.1938388347625732,2.1677043437957764,0.13507744669914246,2.8939101696014404,1.7467334270477295,-0.8290284276008606,1.4240403175354004
0.31377320003230125,0.8132343292236328,2.275019407272339,2.8143904209136963,1.7597728967666626,-0.01710183173418045,3.207329511642456,2.5915613174438477,-0.2319776862859726,1.2975713014602661
0.31681140000000596,1.4270755052566528,2.1563453674316406,2.5245509147644043,1.5406720638275146,-0.05830502137541771,3.6215367317199707,3.5270466804504395,0.4035296142101288,1.3143861293792725
0.3197575999656692,2.027033805847168,2.198122024536133,2.4752767086029053,1.562024474143982,0.059727299958467484,4.305698871612549,4.654285907745361,1.130473017692566,1.518449068069458
0.3233283000299707,2.6198973655700684,2.4711754322052,2.7611145973205566,1.8205498456954956,0.35756826400756836,5.371043682098389,6.025442123413086,1.9870942831039429,1.9102615118026733
0.3258034000173211,3.221703290939331,3.014810562133789,3.4078993797302246,2.2674739360809326,0.8278331160545349,6.84953498840332,7.636767864227295,2.9928717613220215,2.455014944076538
0.3285613999469206,3.8494818210601807,3.8273983001708984,4.373344421386719,2.824359893798828,1.4375019073486328,8.686522483825684,9.43220329284668,4.142005920410156,3.094250202178955
0.3315386000322178,4.5153093338012695,4.86397123336792,5.561556816101074,3.404038429260254,2.133500814437866,10.754524230957031,11.319899559020996,5.404875755310059,3.7621500492095947
0.334463799954392,5.217780113220215,6.038703918457031,6.844482421875,3.9283945560455322,2.850796699523926,12.87630844116211,13.190632820129395,6.73130989074707,4.396018981933594
0.3373721999814734,5.942209243774414,7.236569881439209,8.08547592163086,4.341048240661621,3.522688865661621,14.859983444213867,14.939188957214355,8.059908866882324,4.943332195281982
0.34052229998633265,6.655728816986084,8.326717376708984,9.1573486328125,4.607323169708252,4.086218357086182,16.526813507080078,16.47443389892578,9.32253360748291,5.360378742218018
0.34331429994199425,7.317424774169922,9.187478065490723,9.961633682250977,4.714102268218994,4.494029998779297,17.7428035736084,17.73013687133789,10.45743179321289,5.615766525268555
0.3463343000039458,7.885338306427002,9.725226402282715,10.434759140014648,4.663815975189209,4.720325946807861,18.432971954345703,18.665258407592773,11.414774894714355,5.688445091247559
0.34940970002207905,8.321925163269043,9.88996696472168,10.550158500671387,4.468206882476807,4.762792110443115,18.584259033203125,19.26204490661621,12.162171363830566,5.5708441734313965
0.352378600044176,8.606047630310059,9.682830810546875,10.314509391784668,4.146035194396973,4.644622325897217,18.23687744140625,19.521883010864258,12.68861198425293,5.270335674285889
0.3550641000038013,8.729068756103516,9.150066375732422,9.759754180908203,3.7216994762420654,4.407668113708496,17.46802520751953,19.459449768066406,12.998400688171387,4.810695648193359
0.3573782000457868,8.690685272216797,8.3707857131958,8.934179306030273,3.2227227687835693,4.099605560302734,16.371971130371094,19.098270416259766,13.10533618927002,4.229679107666016
0.36047359998337924,8.499526023864746,7.439894676208496,7.8953680992126465,2.6817970275878906,3.7684969902038574,15.043325424194336,18.469221115112305,13.026647567749023,3.5760233402252197
0.36334229994099587,8.16883659362793,6.449794292449951,6.703175067901611,2.1329240798950195,3.4516868591308594,13.56523609161377,17.607126235961914,12.776247024536133,2.900967597961426
0.3657789999851957,7.7157721519470215,5.476211071014404,5.417317867279053,1.6088560819625854,3.1716620922088623,12.004068374633789,16.547847747802734,12.361143112182617,2.2517662048339844
0.3683122999500483,7.160206317901611,4.568336009979248,4.092358589172363,1.134377121925354,2.933490514755249,10.404947280883789,15.323363304138184,11.779765129089355,1.6645286083221436
0.37138609995599836,6.5292229652404785,3.7468008995056152,2.7762696743011475,0.7231237888336182,2.732314109802246,8.792861938476562,13.958325386047363,11.0267972946167,1.1600416898727417
0.3743461000267416,5.850905418395996,3.0053036212921143,1.5073655843734741,0.3740279972553253,2.5542609691619873,7.174915313720703,12.465520858764648,10.096765518188477,0.7437340617179871
0.3773471999447793,5.1545915603637695,2.318366765975952,0.31244200468063354,0.07320097833871841,2.3862977027893066,5.54005241394043,10.845008850097656,8.98914909362793,0.40682241320610046
0.3802979999454692,4.455380439758301,1.6493641138076782,-0.7924349308013916,-0.2024703174829483,2.2148325443267822,3.8641583919525146,9.084896087646484,7.708520412445068,0.1319766491651535
0.382642799988389,3.7526352405548096,0.9600368142127991,-1.8011095523834229,-0.47980064153671265,2.030035972595215,2.116338014602661,7.166653156280518,6.265746593475342,-0.10364560037851334
0.38474779995158315,3.027730941772461,0.2196752429008484,-2.7130398750305176,-0.7810953855514526,1.8237978219985962,0.2704428732395172,5.074701309204102,4.678237438201904,-0.32114773988723755
0.3877216000109911,2.246464967727661,-0.5874658823013306,-3.5260393619537354,-1.1181458234786987,1.5892852544784546,-1.6806862354278564,2.8069040775299072,2.967552661895752,-0.5351076126098633
0.3907619999954477,1.3702946901321411,-1.4616652727127075,-4.236499309539795,-1.4921108484268188,1.3179428577423096,-3.716575860977173,0.380950927734375,1.1589351892471313,-0.7537193298339844
0.39375369995832443,0.3703969717025757,-2.3909108638763428,-4.838399410247803,-1.8957526683807373,0.9989126920700073,-5.78507137298584,-2.162661075592041,-0.718757688999176,-0.9800266027450562
0.3966931999893859,-0.7606511116027832,-3.3571577072143555,-5.328251361846924,-2.3194310665130615,0.6191153526306152,-7.808940410614014,-4.7634053230285645,-2.6315395832061768,-1.2151039838790894
0.39977150002960116,-2.005178213119507,-4.344615459442139,-5.711042404174805,-2.758654832839966,0.16243413090705872,-9.69878101348877,-7.34818172454834,-4.541049480438232,-1.464727759361267
0.4027450999710709,-3.3209471702575684,-5.343616962432861,-6.004497051239014,-3.2177274227142334,-0.3877391219139099,-11.371094703674316,-9.840372085571289,-6.401494979858398,-1.7404022216796875
0.40588199999183416,-4.649364948272705,-6.349803447723389,-6.238091945648193,-3.7084622383117676,-1.0435492992401123,-12.762957572937012,-12.165660858154297,-8.159685134887695,-2.0599312782287598
0.40878759999759495,-5.922918796539307,-7.354435920715332,-6.445615768432617,-4.242546081542969,-1.8053444623947144,-13.836938858032227,-14.253996849060059,-9.753323554992676,-2.4386637210845947
0.41171759995631874,-7.07266902923584,-8.333292007446289,-6.654133319854736,-4.821361541748047,-2.653414726257324,-14.578272819519043,-16.038761138916016,-11.11136245727539,-2.8816494941711426
0.4147115000523627,-8.029850959777832,-9.235703468322754,-6.8702921867370605,-5.42467737197876,-3.5416393280029297,-14.983830451965332,-17.452468872070312,-12.155817031860352,-3.372514009475708
0.417641400010325,-8.727968215942383,-9.982874870300293,-7.07329797744751,-6.006749153137207,-4.396172046661377,-15.050346374511719,-18.427751541137695,-12.809826850891113,-3.8685715198516846
0.4206469999626279,-9.10542106628418,-10.478141784667969,-7.214336395263672,-6.5014166831970215,-5.125915050506592,-14.76842975616455,-18.90314483642578,-13.009614944458008,-4.303138732910156
0.423890299978666,-9.11540699005127,-10.629661560058594,-7.230945110321045,-6.837193965911865,-5.638739109039307,-14.130125999450684,-18.83728790283203,-12.722041130065918,-4.600693702697754
0.42673099995590746,-8.741927146911621,-10.3805570602417,-7.064542770385742,-6.9593119621276855,-5.8672685623168945,-13.141888618469238,-18.226652145385742,-11.960792541503906,-4.697018146514893
0.42971139994915575,-8.010246276855469,-9.730846405029297,-6.679533958435059,-6.846437931060791,-5.7880024909973145,-11.840580940246582,-17.117919921875,-10.793299674987793,-4.557053565979004
0.43269080005120486,-6.995682239532471,-8.749345779418945,-6.0764594078063965,-6.522314548492432,-5.4326348304748535,-10.30382251739502,-15.612993240356445,-9.33995532989502,-4.1900553703308105
0.4356729999417439,-5.813971042633057,-7.563935279846191,-5.294931888580322,-6.052350044250488,-4.882210731506348,-8.645097732543945,-13.85818099975586,-7.753944396972656,-3.6507487297058105
0.4381308000301942,-4.601534366607666,-6.333497047424316,-4.402702331542969,-5.527831077575684,-4.247903823852539,-6.9945149421691895,-12.021064758300781,-6.195207595825195,-3.0267786979675293
0.44120030000340194,-3.4792864322662354,-5.2059173583984375,-3.4760806560516357,-5.039453983306885,-3.6377885341644287,-5.46903133392334,-10.2554931640625,-4.793366432189941,-2.4154272079467773
0.4441300999606028,-2.5239546298980713,-4.280806064605713,-2.5806682109832764,-4.651301383972168,-3.126542091369629,-4.143596649169922,-8.670010566711426,-3.620542049407959,-1.8980687856674194
0.4471848000539467,-1.7495524883270264,-3.5846662521362305,-1.7550866603851318,-4.384166717529297,-2.7364394664764404,-3.032217025756836,-7.306432723999023,-2.6801040172576904,-1.5187206268310547
0.4501759000122547,-1.1105389595031738,-3.0687873363494873,-1.0050866603851318,-4.210052013397217,-2.4354562759399414,-2.0887162685394287,-6.13566255569458,-1.9136618375778198,-1.274368166923523
0.45280309999361634,-0.5249754786491394,-2.6288836002349854,-0.30709853768348694,-4.062075614929199,-2.1538848876953125,-1.2244787216186523,-5.071278095245361,-1.225755214691162,-1.1183329820632935
0.45587579999119043,0.08471814543008804,-2.1429555416107178,0.37880977988243103,-3.856759548187256,-1.815183162689209,-0.34004300832748413,-3.999457836151123,-0.5191600322723389,-0.9771203994750977
0.45800999994389713,0.763525128364563,-1.5096349716186523,1.0934497117996216,-3.5183663368225098,-1.3637642860412598,0.6424056887626648,-2.8132688999176025,0.2746630609035492,-0.7744156122207642
0.4603052999591455,1.504015564918518,-0.6789208650588989,1.8647710084915161,-3.0003647804260254,-0.784745991230011,1.7571368217468262,-1.442696452140808,1.176721453666687,-0.453031450510025
0.46314689994324,2.243743419647217,0.3307976722717285,2.695943832397461,-2.3024089336395264,-0.11306889355182648,2.9835548400878906,0.12276585400104523,2.15277099609375,0.004786902107298374
0.46599429997149855,2.8963069915771484,1.439978003501892,3.5615503787994385,-1.4700380563735962,0.5820329785346985,4.254796504974365,1.8307700157165527,3.1302032470703125,0.5714964866638184
0.4681190999690443,3.376081943511963,2.5269179344177246,4.409560203552246,-0.5893584489822388,1.2138198614120483,5.474521636962891,3.5736749172210693,4.014847278594971,1.1774334907531738
0.47110930003691465,3.62349796295166,3.4559969902038574,5.166848659515381,0.2291831225156784,1.6982594728469849,6.538946628570557,5.207956314086914,4.711404800415039,1.7258992195129395
0.47410829993896186,3.620136022567749,4.107587814331055,5.748873233795166,0.8739091753959656,1.974485993385315,7.355783939361572,6.582371234893799,5.141519069671631,2.1145238876342773
0.476266699959524,3.382303476333618,4.401488780975342,6.07650899887085,1.2541831731796265,2.011561870574951,7.86033821105957,7.566089153289795,5.251900672912598,2.261174440383911
0.4795454000122845,2.9482157230377197,4.311212539672852,6.091114521026611,1.3216992616653442,1.8112475872039795,8.021585464477539,8.073907852172852,5.018711566925049,2.123713493347168
0.4817916000029072,2.3594307899475098,3.8662655353546143,5.769377708435059,1.0838583707809448,1.403441071510315,7.8439860343933105,8.08285903930664,4.447900772094727,1.713128924369812
0.4841838999418542,1.6596364974975586,3.1517109870910645,5.139588832855225,0.6115279197692871,0.8484983444213867,7.370268821716309,7.64311408996582,3.5824742317199707,1.0989468097686768
0.48688209999818355,0.8945325016975403,2.2917532920837402,4.281181335449219,0.028160765767097473,0.22834183275699615,6.674676418304443,6.87106990814209,2.5024945735931396,0.3957774043083191
0.4899656999623403,0.12640079855918884,1.4351933002471924,3.3210325241088867,-0.5079614520072937,-0.3544498682022095,5.859449863433838,5.934842109680176,1.32684326171875,-0.25365227460861206
0.49216260004322976,-0.5583968162536621,0.730131208896637,2.4119527339935303,-0.8355851769447327,-0.7884565591812134,5.040844917297363,5.024113655090332,0.20477356016635895,-0.7085943222045898
0.4951888000359759,-1.0615895986557007,0.2948553264141083,1.698514699935913,-0.8289896249771118,-0.9755771160125732,4.3272929191589355,4.311448097229004,-0.7115416526794434,-0.862907886505127
0.49869829998351634,-1.2891899347305298,0.19902193546295166,1.2894377708435059,-0.42557471990585327,-0.8492667078971863,3.802675724029541,3.9213814735412598,-1.2915520668029785,-0.6645832657814026
0.5010939999483526,-1.18173348903656,0.4462817311286926,1.2268004417419434,0.3545558452606201,-0.3954787850379944,3.505817413330078,3.9037108421325684,-1.4604229927062988,-0.12988297641277313
0.5040471999673173,-0.7411589026451111,0.976705014705658,1.47910737991333,1.4127897024154663,0.3383292555809021,3.425016164779663,4.227564811706543,-1.2183282375335693,0.6637228727340698
0.5071930999401957,-0.037392690777778625,1.6832507848739624,1.949135422706604,2.59686017036438,1.250944972038269,3.502196788787842,4.795933246612549,-0.6413986086845398,1.5974063873291016
0.5100809000432491,0.8058249354362488,2.4425559043884277,2.5041651725769043,3.7391252517700195,2.211646318435669,3.651841878890991,5.4754109382629395,0.1381249725818634,2.5428390502929688
0.513103700010106,1.6476999521255493,3.148927688598633,3.013667345046997,4.701179027557373,3.094477653503418,3.786432981491089,6.134344100952148,0.9684581756591797,3.3943324089050293
0.5160871000261977,2.3685951232910156,3.739969491958618,3.3825924396514893,5.405548095703125,3.808657646179199,3.8369972705841064,6.671697616577148,1.7147278785705566,4.089601039886475
0.5188472999725491,2.9013493061065674,4.206314563751221,3.5743064880371094,5.849665641784668,4.317944049835205,3.766993761062622,7.033879280090332,2.286548614501953,4.619608402252197
0.5218076000455767,3.238107681274414,4.5793867111206055,3.605515241622925,6.094776153564453,4.637740135192871,3.568120002746582,7.208771705627441,2.642853260040283,5.014666557312012
0.5248566999798641,3.4113399982452393,4.902750492095947,3.5269813537597656,6.234744548797607,4.814073085784912,3.2435083389282227,7.203499794006348,2.77825927734375,5.322536468505859
0.5277473999885842,3.4629697799682617,5.197978496551514,3.388178825378418,6.357322692871094,4.895008087158203,2.789794921875,7.018133640289307,2.6997435092926025,5.5774126052856445
0.5307375999400392,3.400249481201172,5.435296535491943,3.2061216831207275,6.506739139556885,4.896268367767334,2.180145025253296,6.622056007385254,2.397900104522705,5.777072906494141
0.5337552999844775,3.1918110847473145,5.530557155609131,2.951979160308838,6.6692681312561035,4.79472017288208,1.366089940071106,5.954498767852783,1.84389328956604,5.877192497253418
0.536689699976705,2.767054796218872,5.359201431274414,2.5545034408569336,6.773396015167236,4.530989170074463,0.2909460663795471,4.937674045562744,0.9970051646232605,5.799215316772461
0.539909900049679,2.0534420013427734,4.794107437133789,1.9287303686141968,6.715878963470459,4.036759376525879,-1.0808615684509277,3.50998592376709,-0.16657733917236328,5.457729339599609
0.54276059998665,1.0151127576828003,3.749224901199341,1.0132486820220947,6.394584655761719,3.265362024307251,-2.7388687133789062,1.6591075658798218,-1.6261820793151855,4.791620254516602
0.5457770000211895,-0.3089744448661804,2.216920852661133,-0.1959405094385147,5.743869781494141,2.22287654876709,-4.608159065246582,-0.5542398691177368,-3.2938029766082764,3.7912957668304443
0.5481362999416888,-1.8011913299560547,0.28172188997268677,-1.6291285753250122,4.7560343742370605,0.9771256446838379,-6.552165985107422,-2.994527816772461,-5.020493984222412,2.5111985206604004
0.5510895999614149,-3.2864208221435547,-1.892242670059204,-3.1517741680145264,3.483743667602539,-0.3532298803329468,-8.397989273071289,-5.474276065826416,-6.626967430114746,1.061343789100647
0.554114899947308,-4.571330547332764,-4.092906951904297,-4.591604232788086,2.030412197113037,-1.6228684186935425,-9.969857215881348,-7.787998676300049,-7.940052509307861,-0.4119586646556854
0.5571832000277936,-5.497163772583008,-6.105019569396973,-5.778369426727295,0.5269872546195984,-2.694369316101074,-11.126347541809082,-9.753246307373047,-8.835396766662598,-1.7573845386505127
0.5601034000283107,-5.976469993591309,-7.753480434417725,-6.583154678344727,-0.8957052826881409,-3.4685583114624023,-11.788312911987305,-11.243036270141602,-9.263561248779297,-2.8488855361938477
0.5631483000470325,-6.005868911743164,-8.929594993591309,-6.941238880157471,-2.127986431121826,-3.9000377655029297,-11.945579528808594,-12.200167655944824,-9.250764846801758,-3.604430913925171
0.5660651000216603,-5.658145427703857,-9.599508285522461,-6.855679512023926,-3.094324827194214,-3.999030828475952,-11.645413398742676,-12.633393287658691,-8.881010055541992,-3.992262363433838
0.5687644999707118,-5.052595615386963,-9.795196533203125,-6.386599540710449,-3.7610254287719727,-3.821345567703247,-10.973008155822754,-12.602903366088867,-8.264163970947266,-4.029191970825195
0.5717422999441624,-4.319375514984131,-9.592850685119629,-5.627006530761719,-4.131772041320801,-3.4478421211242676,-10.02429485321045,-12.196680068969727,-7.5053911209106445,-3.7663204669952393
0.574796500033699,-3.572727680206299,-9.088927268981934,-4.6791672706604,-4.241818428039551,-2.9678854942321777,-8.888801574707031,-11.512560844421387,-6.6883978843688965,-3.2764713764190674
0.5781417000107467,-2.9002861976623535,-8.383868217468262,-3.6403825283050537,-4.149640083312988,-2.4677586555480957,-7.6430134773254395,-10.646830558776855,-5.873211860656738,-2.643517017364502
0.5810727999778464,-2.360727071762085,-7.569174289703369,-2.5943055152893066,-3.92499041557312,-2.022097110748291,-6.3529839515686035,-9.6889009475708,-5.105820178985596,-1.9529054164886475
0.583216099999845,-1.988925814628601,-6.722261905670166,-1.610305905342102,-3.637394666671753,-1.6896306276321411,-5.080002307891846,-8.71851921081543,-4.4295878410339355,-1.2845815420150757
0.5864451000234112,-1.8017369508743286,-5.90532112121582,-0.7471339106559753,-3.345557928085327,-1.5088552236557007,-3.8859829902648926,-7.804599761962891,-3.8903398513793945,-0.706717312335968
0.5894002999411896,-1.793908715248108,-5.161068439483643,-0.04962705448269844,-3.0849850177764893,-1.491208791732788,-2.8286759853363037,-6.997023105621338,-3.527562379837036,-0.26611146330833435
0.5922801999840885,-1.9338589906692505,-4.511460304260254,0.45452213287353516,-2.865501642227173,-1.6169519424438477,-1.954572319984436,-6.322150230407715,-3.361257553100586,0.017230823636054993
0.5952100999420509,-2.160630226135254,-3.956338882446289,0.7613063454627991,-2.6726675033569336,-1.8365055322647095,-1.2877122163772583,-5.778110504150391,-3.376260995864868,0.15335585176944733
0.5974760999670252,-2.389620542526245,-3.478464365005493,0.893189013004303,-2.478536605834961,-2.079866409301758,-0.8241973519325256,-5.338149070739746,-3.5174615383148193,0.17699652910232544
0.5998639999888837,-2.5304927825927734,-3.053086996078491,0.8942480683326721,-2.257863759994507,-2.2726192474365234,-0.5357837677001953,-4.962343215942383,-3.6993541717529297,0.1345939189195633
0.60222929995507,-2.52181339263916,-2.66392183303833,0.8162023425102234,-2.005488395690918,-2.3640592098236084,-0.38231411576271057,-4.613898277282715,-3.833831787109375,0.06442322582006454
0.6052443999797106,-2.346266508102417,-2.3121070861816406,0.7065607905387878,-1.7429084777832031,-2.3393001556396484,-0.3222050666809082,-4.269911289215088,-3.8518364429473877,-0.014030377380549908
0.6078822000417858,-2.0474159717559814,-2.0235390663146973,0.592657744884491,-1.518069863319397,-2.229576349258423,-0.3260995149612427,-3.9299707412719727,-3.7292115688323975,-0.108561672270298
0.6110796999419108,-1.7207465171813965,-1.842093825340271,0.4772149324417114,-1.3931221961975098,-2.104464530944824,-0.380025178194046,-3.6118199825286865,-3.490959644317627,-0.24794547259807587
0.6137535000452772,-1.4846092462539673,-1.8133575916290283,0.34241190552711487,-1.4243485927581787,-2.0488970279693604,-0.48069649934768677,-3.338620185852051,-3.199674129486084,-0.46574366092681885
0.6170898999553174,-1.4344691038131714,-1.960992693901062,0.16594363749027252,-1.6403076648712158,-2.1310207843780518,-0.6232255697250366,-3.1207942962646484,-2.9246826171875,-0.7777886986732483
0.6194132999517024,-1.6095776557922363,-2.2699732780456543,-0.06480556726455688,-2.0292410850524902,-2.3779304027557373,-0.7932916283607483,-2.9451069831848145,-2.7158520221710205,-1.1673431396484375
0.6222952000098303,-1.975044846534729,-2.6784541606903076,-0.3395653963088989,-2.5378856658935547,-2.763436794281006,-0.9632169604301453,-2.770644426345825,-2.5849967002868652,-1.5815949440002441
0.6252112999791279,-2.4309475421905518,-3.08674955368042,-0.6226873993873596,-3.082789659500122,-3.214606523513794,-1.0961322784423828,-2.537384271621704,-2.5030877590179443,-1.9418435096740723
0.6276032000314444,-2.84572434425354,-3.3781139850616455,-0.8612991571426392,-3.570338487625122,-3.634892225265503,-1.1573525667190552,-2.182906150817871,-2.4145541191101074,-2.1673784255981445
0.6306188999442384,-3.09967041015625,-3.4464898109436035,-1.0003596544265747,-3.917511463165283,-3.933762311935425,-1.1274309158325195,-1.6616880893707275,-2.262885570526123,-2.200615406036377
0.6335707999533042,-3.121833324432373,-3.219005823135376,-0.998580276966095,-4.065508842468262,-4.050853252410889,-1.0045682191848755,-0.9555428624153137,-2.011127233505249,-2.024852752685547
0.6366313999751583,-2.9079480171203613,-2.6679608821868896,-0.8410859704017639,-3.9853525161743164,-3.9693801403045654,-0.8055821061134338,-0.07783478498458862,-1.6566580533981323,-1.6696300506591797
0.6425514000002295,-2.5062005519866943,-1.8069154024124146,-0.5419650673866272,-3.6711535453796387,-3.708597421646118,-0.5546678304672241,0.935727059841156,-1.2244781255722046,-1.1984156370162964
0.6456898000324145,-1.9883770942687988,-0.67582768201828,-0.1359778493642807,-3.1300456523895264,-3.304841995239258,-0.2674325108528137,2.0426185131073,-0.7508965134620667,-0.6852267980575562
0.6485628000227734,-1.4211755990982056,0.6705891489982605,0.3262070119380951,-2.3772215843200684,-2.796236753463745,0.052300550043582916,3.2016007900238037,-0.2713219225406647,-0.1957276612520218
0.6516076000407338,-0.8373575210571289,2.175520896911621,0.7918081283569336,-1.4335216283798218,-2.2054269313812256,0.4129505753517151,4.38116455078125,0.1948130875825882,0.22892199456691742
0.6545464999508113,-0.23500703275203705,3.779025077819824,1.2111470699310303,-0.3323817849159241,-1.5415204763412476,0.8261164426803589,5.555759906768799,0.6442281603813171,0.5733460783958435
0.658285400015302,0.40525707602500916,5.41227388381958,1.543355107307434,0.8721386194229126,-0.8091692924499512,1.2930575609207153,6.70041036605835,1.0809483528137207,0.8407841324806213
0.661564499954693,1.0897037982940674,6.985247611999512,1.752454161643982,2.0956478118896484,-0.029004501178860664,1.7861707210540771,7.777588367462158,1.5001791715621948,1.0346438884735107
0.6645969999954104,1.7924062013626099,8.389695167541504,1.8129003047943115,3.2305800914764404,0.7553579807281494,2.2530689239501953,8.739869117736816,1.8854528665542603,1.1517611742019653
0.6676013000542298,2.447856903076172,9.508537292480469,1.7080650329589844,4.159696578979492,1.4762216806411743,2.6211435794830322,9.532814979553223,2.207821846008301,1.1775442361831665
0.670558899990283,2.9687447547912598,10.241903305053711,1.438060998916626,4.781512260437012,2.0589425563812256,2.8201589584350586,10.109870910644531,2.439622402191162,1.096766471862793
0.6737021999433637,3.2817881107330322,10.53974437713623,1.0262175798416138,5.03998327255249,2.44954514503479,2.8077168464660645,10.450640678405762,2.5754904747009277,0.9104260206222534
0.6765344999730587,3.3586442470550537,10.422652244567871,0.5165382027626038,4.940779685974121,2.6354258060455322,2.5830776691436768,10.569607734680176,2.642247200012207,0.6447951197624207
0.6795614999718964,3.2359018325805664,9.988129615783691,-0.02865414507687092,4.55605936050415,2.658095359802246,2.1930313110351562,10.51660442352295,2.698761224746704,0.35495445132255554
0.6825170000083745,3.009320020675659,9.393597602844238,-0.5405015349388123,4.009323596954346,2.606407403945923,1.7206002473831177,10.365069389343262,2.8204894065856934,0.11424198001623154
0.685538399964571,2.803617000579834,8.81528091430664,-0.9604578018188477,3.4445748329162598,2.5899109840393066,1.2568148374557495,10.186380386352539,3.0692954063415527,-0.009593425318598747
0.6884975000284612,2.7278475761413574,8.40064525604248,-1.255795955657959,2.9900200366973877,2.702439546585083,0.8722056746482849,10.024308204650879,3.465217351913452,0.02211272530257702
0.6915525000076741,2.8427252769470215,8.22674560546875,-1.428965449333191,2.727487325668335,2.9937798976898193,0.5918779969215393,9.876049995422363,3.9701790809631348,0.20191439986228943
0.694505300023593,3.1382036209106445,8.277131080627441,-1.5201175212860107,2.6752994060516357,3.450395345687866,0.3835992217063904,9.685458183288574,4.489622592926025,0.4730319082736969
0.6974864000221714,3.53954815864563,8.448199272155762,-1.5950325727462769,2.790112257003784,3.999720335006714,0.16803964972496033,9.355056762695312,4.8955078125,0.7462308406829834
0.700527900015004,3.93961763381958,8.582640647888184,-1.7282932996749878,2.9879376888275146,4.5357441902160645,-0.15704405307769775,8.773186683654785,5.065872669219971,0.9270780682563782
0.7034602999920025,4.232657432556152,8.513257026672363,-1.984508991241455,3.1690611839294434,4.94979190826416,-0.6858240365982056,7.844547271728516,4.918875217437744,0.9446089267730713
0.7065673000179231,4.347707271575928,8.110891342163086,-2.400590658187866,3.2479395866394043,5.162369251251221,-1.4731818437576294,6.520628929138184,4.439651012420654,0.7728158235549927
0.7094578000251204,4.264024257659912,7.317301273345947,-2.9759905338287354,3.1712403297424316,5.141890525817871,-2.514862298965454,4.818512916564941,3.683837652206421,0.43587401509284973
0.7124570000451058,3.9992361068725586,6.151844024658203,-3.6753242015838623,2.922229290008545,4.901914596557617,-3.747882127761841,2.817931652069092,2.7558887004852295,-0.005998485255986452
0.71546199999284,3.591557025909424,4.7015557289123535,-4.433042526245117,2.5166964530944824,4.486662864685059,-5.061288356781006,0.6489332318305969,1.7774094343185425,-0.4796868860721588
0.718445000005886,3.0747060775756836,3.091991662979126,-5.167366981506348,1.9905970096588135,3.9477341175079346,-6.320061683654785,-1.5356167554855347,0.8518315553665161,-0.9239086508750916
0.7214438000228256,2.460653781890869,1.4529825448989868,-5.797994136810303,1.3827097415924072,3.321773052215576,-7.395144939422607,-3.5917131900787354,0.037100210785865784,-1.3112716674804688
0.7244672999950126,1.7375210523605347,-0.10827479511499405,-6.258640289306641,0.7249590754508972,2.61979341506958,-8.186138153076172,-5.408869743347168,-0.6625712513923645,-1.6512099504470825
0.7275896000210196,0.8891510963439941,-1.5202805995941162,-6.506690979003906,0.03821323812007904,1.834049105644226,-8.63405990600586,-6.921410083770752,-1.2809401750564575,-1.97964346408844
0.7306142000015825,-0.08832451701164246,-2.749516248703003,-6.528263092041016,-0.6676498651504517,0.9497074484825134,-8.724921226501465,-8.111173629760742,-1.8677023649215698,-2.3388965129852295
0.7334295000182465,-1.1696962118148804,-3.7924094200134277,-6.338878154754639,-1.3907737731933594,-0.03675346076488495,-8.484113693237305,-8.998933792114258,-2.4622802734375,-2.7569186687469482
0.7364371999865398,-2.2940454483032227,-4.664700031280518,-5.981179237365723,-2.1336867809295654,-1.104798436164856,-7.968515872955322,-9.631098747253418,-3.0771734714508057,-3.2329301834106445
0.7394836000166833,-3.3735969066619873,-5.391016960144043,-5.516627311706543,-2.9006752967834473,-2.206214427947998,-7.255037307739258,-10.06541919708252,-3.6901800632476807,-3.7349801063537598
0.742426099954173,-4.322498798370361,-5.999768257141113,-5.015158176422119,-3.696873664855957,-3.2762928009033203,-6.43125057220459,-10.361043930053711,-4.2607421875,-4.208140850067139
0.7453632999677211,-5.071027755737305,-6.520011901855469,-4.5426435470581055,-4.524531841278076,-4.245572090148926,-5.5869460105896,-10.570840835571289,-4.745504379272461,-4.589644908905029
0.7483829000266269,-5.588704586029053,-6.980284214019775,-4.147767066955566,-5.378597736358643,-5.057485103607178,-4.805422782897949,-10.73830509185791,-5.118897438049316,-4.825927257537842
0.7513602999970317,-5.893991947174072,-7.410566329956055,-3.858201026916504,-6.244800090789795,-5.683550834655762,-4.158918857574463,-10.898605346679688,-5.389965534210205,-4.890893936157227
0.7543785000452772,-6.035584449768066,-7.830679416656494,-3.6708357334136963,-7.088801383972168,-6.119560241699219,-3.6943869590759277,-11.072014808654785,-5.593153953552246,-4.785837650299072
0.7573470999486744,-6.076638698577881,-8.24553394317627,-3.5571861267089844,-7.854671001434326,-6.379631519317627,-3.4270200729370117,-11.259154319763184,-5.775078296661377,-4.5395026206970215
0.7603104000445455,-6.071881294250488,-8.6414794921875,-3.4746618270874023,-8.47033405303955,-6.487299919128418,-3.3402700424194336,-11.443070411682129,-5.9757513999938965,-4.202328681945801
0.763520700042136,-6.0486555099487305,-8.984867095947266,-3.3795864582061768,-8.858595848083496,-6.4647674560546875,-3.3888444900512695,-11.58903980255127,-6.20620584487915,-3.834376573562622
0.7663911000126973,-6.006490707397461,-9.230945587158203,-3.2428462505340576,-8.957855224609375,-6.3324198722839355,-3.5113494396209717,-11.654959678649902,-6.441747665405273,-3.498281478881836
0.769141299999319,-5.9284515380859375,-9.341205596923828,-3.0638155937194824,-8.746557235717773,-6.115779399871826,-3.6520538330078125,-11.608616828918457,-6.631472110748291,-3.2545700073242188
0.7724326000316069,-5.801128387451172,-9.301032066345215,-2.8745272159576416,-8.260839462280273,-5.855875492095947,-3.7798075675964355,-11.445428848266602,-6.722316265106201,-3.156905174255371
0.7760644999798387,-5.63120174407959,-9.126173973083496,-2.7269208431243896,-7.591898441314697,-5.611945629119873,-3.8910999298095703,-11.191801071166992,-6.67926025390625,-3.2397985458374023
0.7796442999970168,-5.459991455078125,-8.868613243103027,-2.6803958415985107,-6.876399040222168,-5.462018966674805,-4.015133380889893,-10.909345626831055,-6.513070583343506,-3.5153095722198486
0.78263989998959,-5.356800079345703,-8.599956512451172,-2.776416063308716,-6.260232925415039,-5.485708236694336,-4.194573402404785,-10.67399787902832,-6.281675338745117,-3.9608898162841797
0.7858789999736473,-5.400487899780273,-8.390763282775879,-3.019306182861328,-5.860641002655029,-5.742072582244873,-4.465270519256592,-10.550459861755371,-6.079052925109863,-4.5152974128723145
0.7885580000001937,-5.653460502624512,-8.289170265197754,-3.3709235191345215,-5.732699871063232,-6.246565341949463,-4.838465213775635,-10.56713581085205,-6.007615089416504,-5.086483478546143
0.7917127000400797,-6.1309895515441895,-8.300240516662598,-3.752246379852295,-5.848701477050781,-6.952545166015625,-5.286211013793945,-10.694779396057129,-6.139285564422607,-5.562551975250244
0.7946302000200376,-6.788463115692139,-8.387004852294922,-4.067499160766602,-6.10897970199585,-7.754247188568115,-5.7497453689575195,-10.84993839263916,-6.4900102615356445,-5.840544700622559
0.797261800034903,-7.519980430603027,-8.480423927307129,-4.233604907989502,-6.371231555938721,-8.504521369934082,-6.15772819519043,-10.913981437683105,-7.005239963531494,-5.855973720550537
0.7997141999658197,-8.182534217834473,-8.503673553466797,-4.209335803985596,-6.496618270874023,-9.047889709472656,-6.451945781707764,-10.768192291259766,-7.572789669036865,-5.605776786804199
0.8030900999438018,-8.633581161499023,-8.403199195861816,-4.019042491912842,-6.398098468780518,-9.261388778686523,-6.619522571563721,-10.338013648986816,-8.056073188781738,-5.162995338439941
0.8065631999634206,-8.77401065826416,-8.167363166809082,-3.752802848815918,-6.0711565017700195,-9.09022045135498,-6.701625347137451,-9.62240982055664,-8.338382720947266,-4.666107177734375
0.8117061000084504,-8.57778263092041,-7.833468914031982,-3.549532175064087,-5.596688747406006,-8.56213665008545,-6.790077209472656,-8.703330993652344,-8.360809326171875,-4.289917469024658
0.814720300026238,-8.108682632446289,-7.479491710662842,-3.563051462173462,-5.12007999420166,-7.787315368652344,-7.004194259643555,-7.731420040130615,-8.149017333984375,-4.206206321716309
0.8176827999996021,-7.510526657104492,-7.201882362365723,-3.922684669494629,-4.807730197906494,-6.935701370239258,-7.454507350921631,-6.889210224151611,-7.812628746032715,-4.539877414703369
0.8207228999817744,-6.972977161407471,-7.086887836456299,-4.6949872970581055,-4.796311378479004,-6.198052883148193,-8.204771995544434,-6.342452526092529,-7.517766952514648,-5.33576774597168
0.8238526999484748,-6.686281681060791,-7.187047004699707,-5.8637800216674805,-5.152979373931885,-5.744699954986572,-9.247284889221191,-6.196842193603516,-7.444398880004883,-6.544284820556641
0.8268070999765769,-6.802945613861084,-7.51166296005249,-7.332683086395264,-5.858887195587158,-5.694522857666016,-10.499739646911621,-6.475282669067383,-7.741554260253906,-8.035812377929688
0.8296344999689609,-7.394946575164795,-8.02474594116211,-8.946181297302246,-6.8138251304626465,-6.088687419891357,-11.822818756103516,-7.113769054412842,-8.485495567321777,-9.629522323608398
0.8318337999517098,-8.441502571105957,-8.658075332641602,-10.5262451171875,-7.865473747253418,-6.887872219085693,-13.054722785949707,-7.98262882232666,-9.661456108093262,-11.134912490844727
0.834435599972494,-9.835947036743164,-9.332450866699219,-11.915759086608887,-8.851751327514648,-7.984677791595459,-14.056063652038574,-8.926345825195312,-11.168722152709961,-12.39606761932373
0.8375394999748096,-11.41377067565918,-9.979974746704102,-13.015264511108398,-9.643487930297852,-9.230780601501465,-14.748208999633789,-9.806278228759766,-12.850160598754883,-13.32321548461914
0.8406603999901563,-12.996357917785645,-10.56491470336914,-13.806097030639648,-10.178614616394043,-10.473381996154785,-15.136495590209961,-10.539712905883789,-14.536676406860352,-13.910801887512207
0.8435178999789059,-14.434728622436523,-11.092267036437988,-14.349762916564941,-10.474355697631836,-11.59061050415039,-15.307219505310059,-11.117514610290527,-16.09024429321289,-14.23100471496582
0.8466945999534801,-15.636238098144531,-11.601594924926758,-14.763620376586914,-10.61573600769043,-12.512874603271484,-15.3978910446167,-11.597167015075684,-17.43029022216797,-14.407394409179688
0.8495079999556765,-16.57988166809082,-12.152129173278809,-15.181918144226074,-10.726229667663574,-13.232051849365234,-15.552656173706055,-12.077048301696777,-18.541133880615234,-14.578156471252441
0.8528769999975339,-17.305465698242188,-12.795426368713379,-15.705845832824707,-10.925374031066895,-13.79171371459961,-15.869105339050293,-12.653338432312012,-19.455137252807617,-14.853236198425293
0.8557178999762982,-17.884357452392578,-13.545567512512207,-16.36156463623047,-11.285602569580078,-14.2598237991333,-16.354755401611328,-13.376104354858398,-20.217060089111328,-15.276986122131348
0.8588823999743909,-18.37699317932129,-14.359291076660156,-17.08079719543457,-11.803342819213867,-14.695009231567383,-16.913440704345703,-14.217818260192871,-20.84463119506836,-15.811176300048828
0.8610507999546826,-18.806583404541016,-15.135183334350586,-17.71135139465332,-12.396729469299316,-15.121739387512207,-17.36286735534668,-15.068313598632812,-21.305389404296875,-16.343677520751953
0.8640746000455692,-19.145610809326172,-15.733024597167969,-18.055967330932617,-12.930158615112305,-15.518946647644043,-17.48320198059082,-15.757144927978516,-21.514863967895508,-16.71892547607422
0.8672800000058487,-19.31631851196289,-16.007482528686523,-17.928295135498047,-13.25370979309082,-15.821629524230957,-17.077926635742188,-16.093982696533203,-21.352684020996094,-16.781185150146484
0.8702099999645725,-19.22037124633789,-15.854198455810547,-17.212726593017578,-13.254161834716797,-15.944972038269043,-16.035892486572266,-15.922569274902344,-20.702661514282227,-16.424345016479492
0.8728132999967784,-18.77286720275879,-15.244522094726562,-15.905208587646484,-12.892913818359375,-15.812824249267578,-14.367119789123535,-15.166143417358398,-19.49354362487793,-15.623574256896973
0.8759823000291362,-17.927473068237305,-14.235978126525879,-14.11596393585205,-12.214431762695312,-15.378002166748047,-12.198531150817871,-13.845051765441895,-17.721294403076172,-14.440491676330566
0.8788716000271961,-16.689842224121094,-12.955099105834961,-12.035515785217285,-11.325193405151367,-14.631654739379883,-9.733622550964355,-12.065984725952148,-15.45351505279541,-12.998983383178711
0.8822544999420643,-15.113483428955078,-11.558090209960938,-9.8771333694458,-10.35072135925293,-13.598164558410645,-7.191331386566162,-9.987868309020996,-12.813257217407227,-11.442606925964355
0.8851213000016287,-13.277121543884277,-10.179986953735352,-7.809529781341553,-9.38290023803711,-12.317834854125977,-4.739911079406738,-7.772073268890381,-9.943501472473145,-9.884661674499512
0.8878131000092253,-11.265962600708008,-8.896883964538574,-5.910613059997559,-8.446247100830078,-10.830679893493652,-2.4572083950042725,-5.543423652648926,-6.9810471534729,-8.376053810119629
0.8909380999393761,-9.159911155700684,-7.716198444366455,-4.161450386047363,-7.495821475982666,-9.172701835632324,-0.3302047848701477,-3.3745594024658203,-4.040555953979492,-6.902789115905762
0.8938091000309214,-7.024685382843018,-6.5888752937316895,-2.4710707664489746,-6.440596103668213,-7.374090194702148,1.7150582075119019,-1.2901396751403809,-1.2097800970077515,-5.406127452850342
0.896767699974589,-4.919388294219971,-5.448023319244385,-0.7320845127105713,-5.1928181648254395,-5.471807479858398,3.7600619792938232,0.7058858871459961,1.4390084743499756,-3.8242788314819336
0.8990803000051528,-2.9044837951660156,-4.251921653747559,1.1197214126586914,-3.7165427207946777,-3.521066665649414,5.84025239944458,2.597102165222168,3.836822986602783,-2.1354050636291504
0.9016864999430254,-1.0456914901733398,-3.015873670578003,3.062626838684082,-2.059648275375366,-1.6016210317611694,7.910138130187988,4.329231262207031,5.90989351272583,-0.3843439519405365
0.9047663999954239,0.5869254469871521,-1.8202251195907593,4.9817585945129395,-0.3547837734222412,0.18772770464420319,9.842883110046387,5.805634021759033,7.582482814788818,1.3164724111557007
0.9070019000209868,1.9291846752166748,-0.7886086702346802,6.697944641113281,1.2133893966674805,1.7445498704910278,11.461221694946289,6.9044060707092285,8.790230751037598,2.81597638130188
0.9098678999580443,2.937932252883911,-0.0531742200255394,8.017842292785645,2.4588074684143066,2.984532117843628,12.582799911499023,7.508144855499268,9.495567321777344,3.966261863708496
0.9128534999908879,3.5938560962677,0.28502213954925537,8.790482521057129,3.2426576614379883,3.8556082248687744,13.067874908447266,7.534042835235596,9.693904876708984,4.665135860443115
0.915639300015755,3.907125473022461,0.19003014266490936,8.951817512512207,3.512917995452881,4.349053859710693,12.856781005859375,6.962562561035156,9.418898582458496,4.8870110511779785
0.9179398999549448,3.9120278358459473,-0.30084145069122314,8.53823184967041,3.3123056888580322,4.49900484085083,11.979021072387695,5.842779159545898,8.735054016113281,4.685754299163818
0.9206954999826849,3.659301519393921,-1.0830765962600708,7.675013065338135,2.763388156890869,4.374063491821289,10.54575252532959,4.286251544952393,7.725350856781006,4.180048942565918
0.9237023999448866,3.2205073833465576,-2.001753330230713,6.547477722167969,2.0416364669799805,4.072941303253174,8.730655670166016,2.454678773880005,6.492304801940918,3.5263185501098633
0.9260241000447422,2.686854600906372,-2.8802523612976074,5.358875274658203,1.3361221551895142,3.7131729125976562,6.739201068878174,0.5359084010124207,5.151867389678955,2.883399724960327
0.929383400012739,2.1709506511688232,-3.5434229373931885,4.295716762542725,0.8184577822685242,3.42368483543396,4.782224178314209,-1.2754542827606201,3.8345820903778076,2.3870344161987305
0.932157399947755,1.79879629611969,-3.843473196029663,3.4973480701446533,0.6152185201644897,3.328923225402832,3.0456268787384033,-2.801826000213623,2.6776862144470215,2.1290283203125
0.9351495000300929,1.6939064264297485,-3.679032564163208,3.041252851486206,0.7932265400886536,3.532759189605713,1.6652528047561646,-3.9026272296905518,1.8092917203903198,2.149944543838501
0.9381186000537127,1.9402964115142822,-3.013444423675537,2.935054063796997,1.3494582176208496,4.091905117034912,0.7050802707672119,-4.495968818664551,1.3211820125579834,2.4367096424102783
0.9412475000135601,2.5584583282470703,-1.882311463356018,3.1226906776428223,2.2139155864715576,4.998431205749512,0.1457725465297699,-4.572391033172607,1.2446430921554565,2.9309353828430176
0.9441666000057012,3.478878974914551,-0.3965422511100769,3.4940061569213867,3.257699728012085,6.166265964508057,-0.11539587378501892,-4.202365398406982,1.5291259288787842,3.5371406078338623
0.9471621999982744,4.552760124206543,1.275628924369812,3.9082741737365723,4.317480087280273,7.442684173583984,-0.24177071452140808,-3.5250511169433594,2.0480239391326904,4.141053199768066
0.950127899996005,5.585120677947998,2.93776273727417,4.221214294433594,5.227503776550293,8.636818885803223,-0.42158427834510803,-2.7223620414733887,2.6256613731384277,4.631551742553711
0.9530875999480486,6.380895137786865,4.399595260620117,4.312646389007568,5.851077556610107,9.558809280395508,-0.8227225542068481,-1.98475980758667,3.0774710178375244,4.920141696929932
0.9561974999960512,6.80070686340332,5.5143866539001465,4.111427307128906,6.109771251678467,10.063760757446289,-1.548961877822876,-1.4711347818374634,3.2588412761688232,4.957470417022705
0.9586184000363573,6.798901081085205,6.206732749938965,3.6107301712036133,5.998271942138672,10.085223197937012,-2.612278699874878,-1.2758125066757202,3.1020612716674805,4.742143630981445
0.961682999972254,6.432182312011719,6.4854841232299805,2.8711092472076416,5.5841803550720215,9.648345947265625,-3.922877550125122,-1.4064971208572388,2.6357522010803223,4.320761680603027
0.964593300013803,5.837202072143555,6.4316229820251465,2.0033843517303467,4.983801364898682,8.85812759399414,-5.3115925788879395,-1.7899250984191895,1.9717390537261963,3.7723217010498047
0.9676061000209302,5.176372528076172,6.171078205108643,1.1416956186294556,4.3280768394470215,7.86538028717041,-6.568207263946533,-2.2933549880981445,1.267093300819397,3.187142848968506
0.9705840999959037,4.590359687805176,5.84297513961792,0.4141239821910858,3.7301902770996094,6.830286026000977,-7.488826751708984,-2.7575619220733643,0.6842377185821533,2.647357225418091
0.9737145999679342,4.161187648773193,5.570337772369385,-0.08195240795612335,3.2643303871154785,5.890080451965332,-7.915908336639404,-3.031378746032715,0.3495502769947052,2.213386058807373
0.9766435000346974,3.8965253829956055,5.436501979827881,-0.2969421446323395,2.955885648727417,5.134562015533447,-7.770967483520508,-3.00431752204895,0.32305511832237244,1.9169906377792358
0.9795720999827608,3.7511377334594727,5.482468128204346,-0.22843076288700104,2.794586420059204,4.6080546379089355,-7.060873031616211,-2.6218459606170654,0.5975877046585083,1.7672638893127441
0.9825688999844715,3.658005714416504,5.707423686981201,0.08498735725879669,2.7506821155548096,4.314324378967285,-5.873869895935059,-1.891371726989746,1.1076953411102295,1.7558046579360962
0.9855644999770448,3.5625431537628174,6.079602241516113,0.5787047147750854,2.7931127548217773,4.232293605804443,-4.357766628265381,-0.8748424649238586,1.7513381242752075,1.8652681112289429
0.9877659999765456,3.4444665908813477,6.544098377227783,1.1746629476547241,2.8988380432128906,4.326374530792236,-2.6953213214874268,0.3248261511325836,2.4169652462005615,2.0697007179260254
0.9907769999699667,3.3126413822174072,7.032485485076904,1.7952922582626343,3.051853656768799,4.549244403839111,-1.072310447692871,1.5844968557357788,3.005539894104004,2.334516763687134
0.9937922999961302,3.1953370571136475,7.468243598937988,2.3707828521728516,3.234093427658081,4.8452467918396,0.34877264499664307,2.780618906021118,3.4458796977996826,2.6134133338928223
0.9967863999772817,3.1134543418884277,7.777231216430664,2.849565267562866,3.4183194637298584,5.148897647857666,1.45657217502594,3.811476230621338,3.7057435512542725,2.853769063949585
0.9997360999695957,3.0715956687927246,7.8997063636779785,3.204233169555664,3.565757989883423,5.3935017585754395,2.2082321643829346,4.615954875946045,3.797508478164673,3.0040431022644043
1.0027150999521837,3.057248830795288,7.807655334472656,3.4419193267822266,3.6369943618774414,5.52351713180542,2.641753911972046,5.1880388259887695,3.7782366275787354,3.0326521396636963
1.005813500029035,3.0550742149353027,7.517451763153076,3.6074860095977783,3.6071763038635254,5.510529518127441,2.8702359199523926,5.581809043884277,3.7436985969543457,2.9428184032440186
1.0085457999957725,3.0728628635406494,7.099824905395508,3.782968044281006,3.4841744899749756,5.370707988739014,3.064525842666626,5.906005382537842,3.818814992904663,2.7821099758148193
1.0115802000509575,3.1471002101898193,6.670310974121094,4.073151111602783,3.312929153442383,5.1606574058532715,3.4193918704986572,6.302878379821777,4.135623931884766,2.635978937149048
1.0149554000236094,3.3474903106689453,6.369602203369141,4.584061145782471,3.169661521911621,4.969764709472656,4.113860607147217,6.919549465179443,4.810132026672363,2.6082189083099365
1.0175569000421092,3.7489891052246094,6.325222492218018,5.392606258392334,3.1347877979278564,4.8879876136779785,5.268580913543701,7.869601249694824,5.9100117683410645,2.7874362468719482
1.0205408999463543,4.3967156410217285,6.6142401695251465,6.519606590270996,3.2607269287109375,4.970575332641602,6.915953636169434,9.200971603393555,7.430363178253174,3.2156107425689697
1.0235681999474764,5.275712013244629,7.233669757843018,7.912973880767822,3.5443155765533447,5.212030410766602,8.988119125366211,10.876867294311523,9.281805038452148,3.866788625717163
1.0267260000109673,6.296152114868164,8.091019630432129,9.450563430786133,3.9149587154388428,5.536177635192871,11.328943252563477,12.775727272033691,11.297881126403809,4.6474690437316895
1.0297816999955103,7.304832935333252,9.022980690002441,10.965805053710938,4.249581813812256,5.813175678253174,13.728553771972656,14.715228080749512,13.261438369750977,5.422568321228027
1.032491400022991,8.124699592590332,9.832600593566895,12.282732009887695,4.405311107635498,5.896005153656006,15.965819358825684,16.489885330200195,14.949642181396484,6.053341388702393
1.035735100042075,8.601327896118164,10.338448524475098,13.259832382202148,4.265056133270264,5.668423175811768,17.85328483581543,17.91501235961914,16.17796516418457,6.439818859100342
1.0379714999580756,8.644372940063477,10.419748306274414,13.822652816772461,3.777953863143921,5.0840325355529785,19.268774032592773,18.86321258544922,16.83759117126465,6.552418231964111
1.0412703000474721,8.260601043701172,10.048428535461426,13.98163890838623,2.985538959503174,4.191337585449219,20.171844482421875,19.288551330566406,16.91975212097168,6.444121360778809
1.0439529999857768,7.541302680969238,9.287328720092773,13.819995880126953,2.01357102394104,3.120372772216797,20.593767166137695,19.222362518310547,16.50326919555664,6.230166435241699
1.0469731000484899,6.63878870010376,8.272942543029785,13.470483779907227,1.0454813241958618,2.0528199672698975,20.618375778198242,18.757081985473633,15.73154067993164,6.056452751159668
1.049827800015919,5.726041316986084,7.1786789894104,13.078916549682617,0.2785615622997284,1.174968957901001,20.356632232666016,18.018726348876953,14.774308204650879,6.057931423187256
1.052253899979405,4.950976371765137,6.170768737792969,12.766467094421387,-0.12533901631832123,0.6291115283966064,19.918216705322266,17.1331729888916,13.784117698669434,6.32070255279541
1.0552708000177518,4.411288738250732,5.376811504364014,12.604482650756836,-0.0744078978896141,0.4827980399131775,19.394838333129883,16.204326629638672,12.868473052978516,6.860999584197998
1.0577392999548465,4.143959999084473,4.866849899291992,12.605072021484375,0.4375264048576355,0.7211429476737976,18.849550247192383,15.300545692443848,12.076560974121094,7.626289367675781
1.0607986999675632,4.13281774520874,4.648657321929932,12.724035263061523,1.3347028493881226,1.259346604347229,18.31462287902832,14.452238082885742,11.403828620910645,8.508556365966797
1.063749499968253,4.319571495056152,4.676202297210693,12.874185562133789,2.4797439575195312,1.9683656692504883,17.789331436157227,13.65461540222168,10.805081367492676,9.369352340698242
1.066721300012432,4.618555545806885,4.865027904510498,12.94571590423584,3.7039167881011963,2.70766019821167,17.240446090698242,12.875920295715332,10.214216232299805,10.06710147857666
1.0697483000112697,4.931522846221924,5.108753204345703,12.825433731079102,4.838473320007324,3.3532278537750244,16.605016708374023,12.06631088256836,9.56230640411377,10.48046588897705
1.072738099959679,5.1583781242370605,5.296065807342529,12.416207313537598,5.740579605102539,3.8172342777252197,15.798303604125977,11.167071342468262,8.792182922363281,10.524937629699707
1.0758716999553144,5.2075982093811035,5.324853420257568,11.65122127532959,6.312107086181641,4.056126117706299,14.725335121154785,10.120879173278809,7.865221977233887,10.161394119262695
1.0786113999783993,5.017819881439209,5.120163917541504,10.508554458618164,6.510687351226807,4.076449871063232,13.30427074432373,8.887140274047852,6.772178649902344,9.401070594787598
1.081886800006032,4.570282936096191,4.644136428833008,9.01546859741211,6.3489089012146,3.9272613525390625,11.487611770629883,7.451552867889404,5.532705783843994,8.302639961242676
1.0845277999760583,3.9026267528533936,3.9060604572296143,7.247193813323975,5.885107040405273,3.6918094158172607,9.279147148132324,5.833854675292969,4.195901870727539,6.963690757751465
1.0875200999435037,3.1095681190490723,2.9629998207092285,5.315323352813721,5.208343029022217,3.4712541103363037,6.74509334564209,4.0889058113098145,2.836808681488037,5.5064921379089355
1.091046700021252,2.323298692703247,1.9108690023422241,3.34956955909729,4.417346477508545,3.3627614974975586,4.005266189575195,2.2971279621124268,1.5423420667648315,4.05971097946167
1.0934959000442177,1.6806484460830688,0.8641060590744019,1.4716711044311523,3.600170612335205,3.4361259937286377,1.2120131254196167,0.5461293458938599,0.3935491740703583,2.7361440658569336
1.0965271999593824,1.282181978225708,-0.06894294172525406,-0.22631174325942993,2.819573163986206,3.7119505405426025,-1.4778074026107788,-1.0876708030700684,-0.5527265071868896,1.6142268180847168
1.099462499958463,1.1604176759719849,-0.810425877571106,-1.6982680559158325,2.105520009994507,4.151351451873779,-3.9323785305023193,-2.555114507675171,-1.2810382843017578,0.7251232862472534
1.1024906999664381,1.2685617208480835,-1.3300968408584595,-2.9483306407928467,1.459802508354187,4.661787033081055,-6.065053462982178,-3.841888427734375,-1.8217732906341553,0.05115185305476189
1.1058079999638721,1.4916235208511353,-1.6480443477630615,-4.0212273597717285,0.8662448525428772,5.1159491539001465,-7.840461730957031,-4.962931156158447,-2.2423083782196045,-0.4656529426574707
1.1084401999833062,1.68401300907135,-1.8235232830047607,-4.983551502227783,0.30727216601371765,5.384986400604248,-9.268119812011719,-5.948520183563232,-2.6273858547210693,-0.9055395126342773
1.111510599963367,1.7138921022415161,-1.9323080778121948,-5.898921012878418,-0.22253024578094482,5.373740196228027,-10.383855819702148,-6.826347351074219,-3.0522122383117676,-1.346555233001709
1.1146582999499515,1.5091835260391235,-2.0409433841705322,-6.808408260345459,-0.709003210067749,5.049082279205322,-11.231429100036621,-7.6068549156188965,-3.5568504333496094,-1.8447034358978271
1.1172960000112653,1.0768935680389404,-2.1864612102508545,-7.717598915100098,-1.1196489334106445,4.449647903442383,-11.846672058105469,-8.278985023498535,-4.134443759918213,-2.4190900325775146
1.1203060999978334,0.5023969411849976,-2.3642051219940186,-8.593852043151855,-1.4095888137817383,3.6767098903656006,-12.249480247497559,-8.81100845336914,-4.730700492858887,-3.0476651191711426
1.1234355999622494,-0.07796832174062729,-2.5315372943878174,-9.372953414916992,-1.5329355001449585,2.869126558303833,-12.442949295043945,-9.161959648132324,-5.25978422164917,-3.6739211082458496
1.126326599973254,-0.5143157839775085,-2.621795892715454,-9.974315643310547,-1.4540988206863403,2.1700146198272705,-12.420654296875,-9.294038772583008,-5.62431001663208,-4.222687244415283
1.1289800000377,-0.6819804310798645,-2.5629489421844482,-10.313922882080078,-1.1532704830169678,1.6951833963394165,-12.17193603515625,-9.180192947387695,-5.739623546600342,-4.616619110107422
1.1320228000404313,-0.5079447031021118,-2.300229787826538,-10.323806762695312,-0.6321377754211426,1.512741208076477,-11.692060470581055,-8.81032657623291,-5.5487799644470215,-4.797927379608154
1.1351484999759123,0.01618269830942154,-1.8115171194076538,-9.961536407470703,0.08576595038175583,1.636300802230835,-10.985481262207031,-8.190292358398438,-5.031346797943115,-4.7395501136779785
1.1378592000110075,0.8401549458503723,-1.1143529415130615,-9.219523429870605,0.9569410085678101,2.0321948528289795,-10.068704605102539,-7.338885307312012,-4.201979637145996,-4.451145648956299
1.1400989999528974,1.8629403114318848,-0.2669837474822998,-8.130995750427246,1.917833924293518,2.629232406616211,-8.973834991455078,-6.288515090942383,-3.1095163822174072,-3.9777932167053223
1.1423514999914914,2.9609603881835938,0.6450550556182861,-6.766667366027832,2.891766309738159,3.3417840003967285,-7.745698928833008,-5.082185745239258,-1.8249109983444214,-3.387169122695923
1.1453217000234872,3.9979848861694336,1.5228780508041382,-5.2287421226501465,3.79447603225708,4.07829475402832,-6.440606594085693,-3.777827024459839,-0.44021835923194885,-2.755056381225586
1.148469000007026,4.851521015167236,2.274260997772217,-3.639279365539551,4.545576095581055,4.754756927490234,-5.120747089385986,-2.4453086853027344,0.9421416521072388,-2.148519515991211
1.1509474000195041,5.422961235046387,2.828474521636963,-2.1239044666290283,5.07836389541626,5.298242568969727,-3.848435878753662,-1.1640421152114868,2.213136672973633,-1.6144875288009644
1.153931500040926,5.6603240966796875,3.1541855335235596,-0.7894029021263123,5.3567986488342285,5.654713153839111,-2.6737306118011475,-0.007302636280655861,3.2777187824249268,-1.1692014932632446
1.157051800051704,5.566336631774902,3.2645180225372314,0.29424163699150085,5.382480621337891,5.791977405548096,-1.6244157552719116,0.9740442633628845,4.070341110229492,-0.7984983325004578
1.1599353000055999,5.20148229598999,3.2156319618225098,1.108304500579834,5.196769714355469,5.701841354370117,-0.6992630362510681,1.7653799057006836,4.570446014404297,-0.4639016091823578
1.1630064999917522,4.676206111907959,3.096691846847534,1.6902002096176147,4.874501705169678,5.403428554534912,0.13583114743232727,2.399679660797119,4.813992500305176,-0.11324983090162277
1.1652538999915123,4.126819610595703,3.0110323429107666,2.1259653568267822,4.508450984954834,4.94003438949585,0.9413779973983765,2.9533329010009766,4.889027118682861,0.3058781623840332
1.1675468999892473,3.686584234237671,3.0535178184509277,2.530463695526123,4.189096450805664,4.37178897857666,1.7918614149093628,3.529038190841675,4.918241500854492,0.8316471576690674
1.1702949999598786,3.447404623031616,3.2887024879455566,3.021230936050415,3.9845235347747803,3.762805938720703,2.7592720985412598,4.230160713195801,5.027627944946289,1.4786227941513062
1.1735259999986738,3.4435951709747314,3.735891342163086,3.68880558013916,3.9273290634155273,3.17281436920166,3.8936431407928467,5.132023334503174,5.3160576820373535,2.2305400371551514
1.1764624000061303,3.643184185028076,4.364369869232178,4.574341297149658,4.01041841506958,2.6467294692993164,5.210658073425293,6.261996746063232,5.82963228225708,3.0431225299835205
1.1792520999442786,3.9617762565612793,5.099965572357178,5.655695915222168,4.193414211273193,2.211106061935425,6.6828389167785645,7.5901198387146,6.5511956214904785,3.8490042686462402
1.1822348999558017,4.28985071182251,5.842123985290527,6.85222864151001,4.416441917419434,1.8743478059768677,8.242819786071777,9.03593921661377,7.40586519241333,4.570922374725342
1.1852167999604717,4.5267863273620605,6.486166477203369,8.039512634277344,4.617520332336426,1.6335843801498413,9.793404579162598,10.487239837646484,8.284046173095703,5.134926795959473
1.1880644999910146,4.606363296508789,6.945776462554932,9.076177597045898,4.74796199798584,1.4782650470733643,11.22156810760498,11.823432922363281,9.066813468933105,5.4855427742004395
1.1910669000353664,4.508419513702393,7.168496608734131,9.832280158996582,4.780971050262451,1.3949429988861084,12.417280197143555,12.937339782714844,9.650418281555176,5.593481540679932
1.1940784000325948,4.2548017501831055,7.142796039581299,10.214432716369629,4.713955402374268,1.369044303894043,13.28968334197998,13.749139785766602,9.963232040405273,5.461609363555908
1.1973030000226572,3.8924787044525146,6.894003868103027,10.181146621704102,4.563838958740234,1.3834768533706665,13.776354789733887,14.210719108581543,9.969244003295898,5.1213765144348145
1.1996792999561876,3.472809076309204,6.473053932189941,9.746317863464355,4.359889507293701,1.420890212059021,13.849780082702637,14.302459716796875,9.664926528930664,4.625015735626221
1.2030145999742672,3.0407915115356445,5.943795204162598,8.97425365447998,4.137697696685791,1.4652752876281738,13.519783020019531,14.02959156036377,9.074090957641602,4.0356011390686035
1.2058144999900833,2.6251397132873535,5.368420600891113,7.96397590637207,3.9334518909454346,1.5071808099746704,12.829094886779785,13.415702819824219,8.24001407623291,3.4145290851593018
1.2085187999764457,2.2426764965057373,4.7980756759643555,6.83035135269165,3.7810912132263184,1.5475088357925415,11.846553802490234,12.500625610351562,7.222488880157471,2.812747001647949
1.211393199977465,1.9060519933700562,4.269236087799072,5.687469959259033,3.7097489833831787,1.5996915102005005,10.660479545593262,11.34199333190918,6.094793796539307,2.265887498855591
1.213522300007753,1.6308228969573975,3.805147886276245,4.633759021759033,3.7424466609954834,1.6889641284942627,9.36842155456543,10.015685081481934,4.940458297729492,1.7947500944137573
1.2159653999842703,1.425208568572998,3.4163126945495605,3.7397348880767822,3.8875350952148438,1.83746337890625,8.065104484558105,8.610882759094238,3.8400590419769287,1.4059171676635742
1.2192899000365287,1.294735074043274,3.105084180831909,3.0422730445861816,4.135744571685791,2.0586421489715576,6.830626487731934,7.222538471221924,2.8616535663604736,1.096205472946167
1.2221526999492198,1.227652668952942,2.866630792617798,2.542607069015503,4.453886985778809,2.3430469036102295,5.719239711761475,5.937297821044922,2.0448434352874756,0.855241596698761
1.225142000010237,1.1920641660690308,2.691598892211914,2.2127552032470703,4.787797451019287,2.6547720432281494,4.754402160644531,4.822361946105957,1.392310619354248,0.6706486940383911
1.22814240003936,1.1408283710479736,2.564241409301758,1.9996203184127808,5.067655086517334,2.9373738765716553,3.925415515899658,3.910160541534424,0.8688766956329346,0.5261340737342834
1.231130399974063,1.0246373414993286,2.4617934226989746,1.836271047592163,5.220343589782715,3.1257259845733643,3.1916630268096924,3.1915030479431152,0.40892741084098816,0.401261568069458
1.2341035000281408,0.8070297837257385,2.35770583152771,1.655105471611023,5.1869659423828125,3.1640512943267822,2.496636390686035,2.618823528289795,-0.06580353528261185,0.27215495705604553
1.2370890999445692,0.4778648316860199,2.2221620082855225,1.397063136100769,4.935479640960693,3.022007942199707,1.7810951471328735,2.1138670444488525,-0.6265301704406738,0.11077706515789032
1.2402092999545857,0.06125763803720474,2.030165910720825,1.0259357690811157,4.473015308380127,2.708139419555664,1.0030001401901245,1.5869920253753662,-1.3174642324447632,-0.10650182515382767
1.2432371999602765,-0.3930829167366028,1.7657984495162964,0.5327220559120178,3.8460824489593506,2.267390251159668,0.14867982268333435,0.9567529559135437,-2.1464686393737793,-0.395069420337677
1.246190799982287,-0.8209729790687561,1.43010413646698,-0.05945116654038429,3.1364145278930664,1.7760088443756104,-0.7593017816543579,0.17107175290584564,-3.081305980682373,-0.7501001358032227
1.248800199944526,-1.1606258153915405,1.0427204370498657,-0.7027008533477783,2.445011615753174,1.3242493867874146,-1.6700923442840576,-0.7804293632507324,-4.055254936218262,-1.1436553001403809
1.2518022999865934,-1.3767955303192139,0.6354273557662964,-1.3378301858901978,1.8707152605056763,0.9918837547302246,-2.5223660469055176,-1.8684571981430054,-4.988620758056641,-1.5271834135055542
1.2547894000308588,-1.4687023162841797,0.24303606152534485,-1.911978006362915,1.4875342845916748,0.8290723562240601,-3.264383316040039,-3.0328428745269775,-5.804685115814209,-1.8432294130325317
1.25820359995123,-1.4708302021026611,-0.1113278716802597,-2.395780324935913,1.3262156248092651,0.8411232829093933,-3.8756470680236816,-4.203376293182373,-6.447703838348389,-2.0430095195770264
1.2611101999646053,-1.446345329284668,-0.4312722682952881,-2.797846794128418,1.3623008728027344,0.9820956587791443,-4.38016414642334,-5.3233466148376465,-6.898403167724609,-2.1063427925109863
1.2640555000398308,-1.4717445373535156,-0.7526616454124451,-3.165600538253784,1.5176808834075928,1.162052035331726,-4.842902660369873,-6.366086959838867,-7.176056861877441,-2.0547189712524414
1.2670657000271603,-1.6152849197387695,-1.1399474143981934,-3.572335958480835,1.6760519742965698,1.2657060623168945,-5.350940704345703,-7.338495254516602,-7.3305439949035645,-1.951151728630066
1.270062700030394,-1.915555477142334,-1.6666096448898315,-4.093369483947754,1.7118719816207886,1.1822121143341064,-5.982580661773682,-8.267580032348633,-7.421031475067139,-1.8826984167099
1.273106100037694,-2.3655169010162354,-2.3862392902374268,-4.773214340209961,1.5251538753509521,0.83637535572052,-6.77448844909668,-9.176891326904297,-7.492007255554199,-1.9303842782974243
1.2761228999588639,-2.9036953449249268,-3.3035149574279785,-5.600461483001709,1.0747919082641602,0.215720534324646,-7.697052955627441,-10.056709289550781,-7.549306392669678,-2.1366026401519775
1.2790896999649704,-3.424118757247925,-4.357074737548828,-6.495903015136719,0.3964290916919708,-0.6190581321716309,-8.650703430175781,-10.849855422973633,-7.5519185066223145,-2.481513738632202
1.2820658000418916,-3.798985004425049,-5.426540374755859,-7.326690673828125,-0.40414032340049744,-1.5447726249694824,-9.488581657409668,-11.45613956451416,-7.421891212463379,-2.8813815116882324
1.2851052000187337,-3.9178545475006104,-6.365218639373779,-7.945046424865723,-1.1823408603668213,-2.411015510559082,-10.0630464553833,-11.764737129211426,-7.077939987182617,-3.216163396835327
1.2876346999546513,-3.729001760482788,-7.048874378204346,-8.238576889038086,-1.803328275680542,-3.086726665496826,-10.277523040771484,-11.699999809265137,-6.476387023925781,-3.3733463287353516
1.2907042000442743,-3.2609310150146484,-7.416075706481934,-8.165884017944336,-2.1838769912719727,-3.498342752456665,-10.118066787719727,-11.255582809448242,-5.638379096984863,-3.2879574298858643
1.2936538000358269,-2.6176867485046387,-7.485179901123047,-7.7720112800598145,-2.314145565032959,-3.6457653045654297,-9.658408164978027,-10.504671096801758,-4.651697635650635,-2.9669675827026367
1.2966057000448927,-1.9502909183502197,-7.341732025146484,-7.16840934753418,-2.25276517868042,-3.5956790447235107,-9.027809143066406,-9.579127311706543,-3.646979808807373,-2.484419584274292
1.2996632000431418,-1.397512435913086,-7.096378326416016,-6.488665580749512,-2.091062307357788,-3.4407896995544434,-8.357213973999023,-8.61975383758545,-2.7455127239227295,-1.9498893022537231
1.3026385999983177,-1.0357826948165894,-6.831175327301025,-5.834280014038086,-1.907721996307373,-3.2571370601654053,-7.722160339355469,-7.720741271972656,-2.0080275535583496,-1.4612139463424683
1.305877299979329,-0.8410540819168091,-6.556085586547852,-5.231812000274658,-1.7248097658157349,-3.0636515617370605,-7.104310989379883,-6.88611364364624,-1.4011527299880981,-1.0612835884094238
1.308157299994491,-0.6947362422943115,-6.201442718505859,-4.6250081062316895,-1.4955213069915771,-2.812006950378418,-6.397097110748291,-6.02714729309082,-0.8047569990158081,-0.7218314409255981
1.3111475999467075,-0.427854061126709,-5.65104866027832,-3.9056663513183594,-1.125856637954712,-2.4119274616241455,-5.452417373657227,-5.002540588378906,-0.058271195739507675,-0.36099302768707275
1.3142273999983445,0.10638461261987686,-4.802466869354248,-2.968564987182617,-0.5233488082885742,-1.780019998550415,-4.1518635749816895,-3.686119318008423,0.9654510021209717,0.11542189121246338
1.3171791000058874,0.9591624140739441,-3.6305689811706543,-1.7695715427398682,0.34855735301971436,-0.8952681422233582,-2.473426580429077,-2.0342910289764404,2.2911884784698486,0.7647853493690491
1.3202075000153854,2.0517466068267822,-2.2240774631500244,-0.36184677481651306,1.4331380128860474,0.16834764182567596,-0.5261598229408264,-0.12408105283975601,3.812814235687256,1.5726797580718994
1.3233159000519663,3.1822986602783203,-0.7761110663414001,1.107581377029419,2.5804224014282227,1.2430038452148438,1.4641128778457642,1.8551501035690308,5.309352397918701,2.4481101036071777
1.3261022999649867,4.089235305786133,0.47658950090408325,2.444470167160034,3.5893235206604004,2.112428903579712,3.2231764793395996,3.6641671657562256,6.5170722007751465,3.257390022277832
1.3291709000477567,4.551803112030029,1.3405585289001465,3.4787542819976807,4.277719497680664,2.587200880050659,4.520265102386475,5.1006760597229,7.228657245635986,3.877739429473877
1.3323823999380693,4.4737420082092285,1.7456858158111572,4.128844261169434,4.548792362213135,2.572782516479492,5.25126314163208,6.078614234924316,7.374195098876953,4.248813629150391
1.3355631999438629,3.9339821338653564,1.7869948148727417,4.439544677734375,4.434679985046387,2.115520715713501,5.484270095825195,6.669792175292969,7.061575412750244,4.40382194519043
1.3381179999560118,3.1807024478912354,1.7083723545074463,4.573413848876953,4.094760417938232,1.4025719165802002,5.446056842803955,7.087490081787109,6.550928592681885,4.463463306427002
1.3411454999586567,2.5643692016601562,1.833743691444397,4.762428283691406,3.7720232009887695,0.7158901691436768,5.457939147949219,7.621669769287109,6.179168701171875,4.59820556640625
1.3438436000142246,2.4303786754608154,2.466024875640869,5.2342939376831055,3.721008777618408,0.3513558506965637,5.8387837409973145,8.544026374816895,6.253613471984863,4.971907615661621
1.3466443000361323,3.0092320442199707,3.784492254257202,6.13673210144043,4.127830505371094,0.5313887596130371,6.804252624511719,10.013747215270996,6.950165748596191,5.683043479919434
1.349627700052224,4.344419479370117,5.783724308013916,7.490659236907959,5.056556224822998,1.340919852256775,8.401202201843262,12.021413803100586,8.258888244628906,6.7317423820495605
1.3520129000535235,6.266279697418213,8.260026931762695,9.178200721740723,6.427221775054932,2.6979568004608154,10.487829208374023,14.378664016723633,9.979609489440918,8.01235580444336
1.3550779999932274,8.440558433532715,10.862537384033203,10.974615097045898,8.040262222290039,4.378014087677002,12.77199649810791,16.766830444335938,11.785269737243652,9.343506813049316
1.3585259999381378,10.456585884094238,13.18121337890625,12.607884407043457,9.630188941955566,6.0746331214904785,14.886116981506348,18.816164016723633,13.310114860534668,10.51669979095459
1.3614593000384048,11.938302993774414,14.847825050354004,13.826498985290527,10.931432723999023,7.479408264160156,16.479740142822266,20.19719123840332,14.2482328414917,11.348959922790527
1.3644787999801338,12.635991096496582,15.624215126037598,14.459613800048828,11.742645263671875,8.357658386230469,17.304561614990234,20.698976516723633,14.429235458374023,11.72811222076416
1.3671839999733493,12.490099906921387,15.45485782623291,14.454927444458008,11.97093391418457,8.605720520019531,17.268943786621094,20.273834228515625,13.852416038513184,11.640315055847168
1.3701513999840245,11.631044387817383,14.469402313232422,13.88110065460205,11.644033432006836,8.265008926391602,16.44869613647461,19.03788185119629,12.672440528869629,11.167170524597168
1.3733013999881223,10.33324909210205,12.94185733795166,12.90329647064209,10.896400451660156,7.501563549041748,15.058570861816406,17.235403060913086,11.149293899536133,10.46300220489502
1.3763420999748632,8.932188034057617,11.214789390563965,11.733572959899902,9.926515579223633,6.5526628494262695,13.38664436340332,15.170762062072754,9.571735382080078,9.711249351501465
1.3790678000077605,7.728818893432617,9.611851692199707,10.57262134552002,8.94395637512207,5.658366680145264,11.715309143066406,13.13032054901123,8.18088150024414,9.075023651123047
1.3820373000344262,6.911745548248291,8.359994888305664,9.558545112609863,8.114738464355469,4.997572898864746,10.247980117797852,11.313990592956543,7.110146999359131,8.65241813659668
1.384522799984552,6.51427698135376,7.541607856750488,8.733877182006836,7.522032260894775,4.644859313964844,9.062406539916992,9.791512489318848,6.3602705001831055,8.448391914367676
1.3871289000380784,6.416625022888184,7.085846900939941,8.04236888885498,7.151123046875,4.559765338897705,8.10276985168457,8.49699878692627,5.809381008148193,8.373997688293457
1.3903467999771237,6.394006729125977,6.8019700050354,7.352271556854248,6.8998494148254395,4.607127666473389,7.207304000854492,7.257750511169434,5.254778861999512,8.267894744873047
1.3930916000390425,6.1885175704956055,6.443383693695068,6.504279613494873,6.617919445037842,4.604713439941406,6.171758651733398,5.8564133644104,4.478755474090576,7.943760395050049
1.3961703999666497,5.590037822723389,5.785358905792236,5.366927623748779,6.1566877365112305,4.381681442260742,4.822333335876465,4.103734016418457,3.316077470779419,7.246150016784668
1.3983075999421999,4.499769687652588,4.687834739685059,3.880161762237549,5.4152302742004395,3.8294529914855957,3.0729498863220215,1.8998104333877563,1.7033125162124634,6.093917369842529
1.4009631000226364,2.9489104747772217,3.129138231277466,2.0748674869537354,4.367980480194092,2.9255449771881104,0.9543038010597229,-0.7336875200271606,-0.3053368031978607,4.503911972045898
1.4039832999696955,1.0888562202453613,1.2041603326797485,0.06709412485361099,3.06894850730896,1.7381964921951294,-1.3936692476272583,-3.65497088432312,-2.552643060684204,2.5861093997955322
1.4069538000039756,-0.864185631275177,-0.9140779376029968,-1.9785900115966797,1.6266251802444458,0.39565151929855347,-3.766432523727417,-6.642137050628662,-4.827206134796143,0.5094504356384277
1.409080500015989,-2.6856091022491455,-3.022993564605713,-3.890324115753174,0.17019809782505035,-0.9508972764015198,-5.948156356811523,-9.446111679077148,-6.916608810424805,-1.5399169921875
1.4122346000513062,-4.204013347625732,-4.944843292236328,-5.533055305480957,-1.190332293510437,-2.169475793838501,-7.768312454223633,-11.851943016052246,-8.661069869995117,-3.405045509338379
1.4144022000255063,-5.333743572235107,-6.562257766723633,-6.835982799530029,-2.391301393508911,-3.1776397228240967,-9.137185096740723,-13.72336196899414,-9.982571601867676,-4.988733291625977
1.416933299973607,-6.077165126800537,-7.827651500701904,-7.796355724334717,-3.421830415725708,-3.951735496520996,-10.050844192504883,-15.019829750061035,-10.885149002075195,-6.2597246170043945
1.4192932000150904,-6.495382308959961,-8.744170188903809,-8.455865859985352,-4.306413173675537,-4.513502597808838,-10.564229011535645,-15.77973461151123,-11.42654037475586,-7.233945846557617
1.4220069999573752,-6.665557384490967,-9.335590362548828,-8.868060111999512,-5.074794769287109,-4.901673316955566,-10.750422477722168,-16.085285186767578,-11.67485237121582,-7.943017482757568
1.4248565000016242,-6.640449047088623,-9.619619369506836,-9.066800117492676,-5.736702919006348,-5.1463117599487305,-10.6619234085083,-16.020490646362305,-11.6699800491333,-8.406054496765137
1.4280254000332206,-6.431178092956543,-9.59145736694336,-9.044610023498535,-6.263975143432617,-5.2499189376831055,-10.304808616638184,-15.636556625366211,-11.403460502624512,-8.60904312133789
1.4310018999967724,-6.0053391456604,-9.226263999938965,-8.752387046813965,-6.592905521392822,-5.180966377258301,-9.6370267868042,-14.934767723083496,-10.817645072937012,-8.505849838256836
1.4339270000346005,-5.318126201629639,-8.500181198120117,-8.119034767150879,-6.646656513214111,-4.8929266929626465,-8.592683792114258,-13.875825881958008,-9.833810806274414,-8.038290023803711
1.4369459999725223,-4.343860149383545,-7.413985729217529,-7.084327697753906,-6.365178108215332,-4.346747875213623,-7.117088317871094,-12.402544975280762,-8.388348579406738,-7.166262626647949
1.4402206999948248,-3.105926275253296,-6.0137200355529785,-5.631842613220215,-5.735921382904053,-3.5383360385894775,-5.204684734344482,-10.475912094116211,-6.4697442054748535,-5.897183418273926
1.4429525999585167,-1.6853402853012085,-4.395812034606934,-3.811208963394165,-4.808987617492676,-2.5133748054504395,-2.921774387359619,-8.104596138000488,-4.138551712036133,-4.302398681640625
1.4453123999992386,-0.21048763394355774,-2.699476480484009,-1.7450321912765503,-3.698615074157715,-1.368886113166809,-0.4113398492336273,-5.366870403289795,-1.5296401977539062,-2.5179290771484375
1.4479071999667212,1.170729637145996,-1.0832473039627075,0.3856792151927948,-2.5613062381744385,-0.23796334862709045,2.1254501342773438,-2.412226915359497,1.1662198305130005,-0.7240121364593506
1.4502125999424607,2.3252477645874023,0.3014661371707916,2.3709146976470947,-1.5654493570327759,0.7396719455718994,4.464394569396973,0.5524428486824036,3.733245849609375,0.8848868012428284
1.4528429999481887,3.168586015701294,1.344194769859314,4.018484115600586,-0.8476698398590088,1.4519908428192139,6.408316135406494,3.3018620014190674,5.976296901702881,2.1447947025299072
1.4559433000395074,3.675947904586792,1.994433879852295,5.193226337432861,-0.48121654987335205,1.8395854234695435,7.827477931976318,5.631743431091309,7.7532124519348145,2.954501152038574
1.4590148000279441,3.881319999694824,2.2695186138153076,5.84567928314209,-0.45946162939071655,1.9075571298599243,8.686027526855469,7.3997483253479,8.998007774353027,3.296506404876709
1.4610815000487491,3.852492332458496,2.2467942237854004,6.021641254425049,-0.7005330920219421,1.7165453433990479,9.045352935791016,8.550158500671387,9.721258163452148,3.236659526824951
1.4641596999717876,3.669114351272583,2.0442614555358887,5.846845626831055,-1.0708235502243042,1.361938714981079,9.044679641723633,9.123229026794434,10.001957893371582,2.905751943588257
1.4675300000235438,3.3981387615203857,1.7959951162338257,5.496108531951904,-1.419714331626892,0.9450336694717407,8.86528205871582,9.243963241577148,9.962312698364258,2.467745780944824
1.470483100041747,3.0904531478881836,1.6279079914093018,5.154907703399658,-1.6159465312957764,0.5533952713012695,8.691564559936523,9.094904899597168,9.744717597961426,2.0852835178375244
1.4732394999591634,2.777662992477417,1.6362570524215698,4.9796037673950195,-1.575244665145874,0.24322207272052765,8.674638748168945,8.879241943359375,9.484240531921387,1.8886367082595825
1.476191999972798,2.48451828956604,1.8751975297927856,5.068345546722412,-1.2733350992202759,0.04100504890084267,8.907958030700684,8.780948638916016,9.288745880126953,1.9554792642593384
1.4794631999684498,2.241938591003418,2.3547520637512207,5.453291893005371,-0.7406796216964722,-0.04793344810605049,9.424561500549316,8.934682846069336,9.228767395019531,2.3073618412017822
1.4829447000520304,2.085061550140381,3.0433897972106934,6.102265357971191,-0.04638863727450371,-0.0296576377004385,10.20240592956543,9.403351783752441,9.33134651184082,2.9140515327453613
1.4858844999689609,2.0519180297851562,3.8782567977905273,6.937650680541992,0.723166823387146,0.08857081830501556,11.179117202758789,10.171307563781738,9.580808639526367,3.7080442905426025
1.4886650999542326,2.1610724925994873,4.778038501739502,7.859098434448242,1.4866254329681396,0.2953732907772064,12.269502639770508,11.154009819030762,9.925171852111816,4.602070331573486
1.4915484000230208,2.4015963077545166,5.653430938720703,8.761724472045898,2.177428722381592,0.5724687576293945,13.373758316040039,12.213455200195312,10.284235954284668,5.5005035400390625
1.4938404000131413,2.7199788093566895,6.418298721313477,9.55156421661377,2.7480998039245605,0.8829931020736694,14.383617401123047,13.183670043945312,10.56039047241211,6.310967922210693
1.4966671000001952,3.0334885120391846,7.004796028137207,10.156881332397461,3.172927141189575,1.1764187812805176,15.193685531616211,13.907078742980957,10.661211013793945,6.956893444061279
1.4999719000188634,3.2487423419952393,7.367711067199707,10.526713371276855,3.4414873123168945,1.3927918672561646,15.702959060668945,14.258164405822754,10.513223648071289,7.381180763244629
1.502526200027205,3.2939724922180176,7.493964195251465,10.632822036743164,3.5596721172332764,1.481052041053772,15.829357147216797,14.169836044311523,10.081600189208984,7.5551652908325195
1.5057311999844387,3.153627872467041,7.408085346221924,10.471794128417969,3.5542798042297363,1.424329161643982,15.528657913208008,13.649665832519531,9.385886192321777,7.4857964515686035
1.5083429999649525,2.875241279602051,7.165500640869141,10.061868667602539,3.4711039066314697,1.2508445978164673,14.805329322814941,12.774361610412598,8.496016502380371,7.214052200317383
1.511492499965243,2.5700442790985107,6.844656467437744,9.44315242767334,3.374697208404541,1.040442943572998,13.719574928283691,11.677141189575195,7.527690887451172,6.808601379394531
1.5143355999607593,2.3790087699890137,6.528322696685791,8.671833038330078,3.337852954864502,0.9066504836082458,12.379903793334961,10.517030715942383,6.617338180541992,6.35060453414917
1.5173347999807447,2.428163766860962,6.283872127532959,7.81297492980957,3.426337242126465,0.9669099450111389,10.921102523803711,9.443265914916992,5.8907084465026855,5.91300106048584
1.520305100013502,2.7850100994110107,6.144491195678711,6.928064823150635,3.6792714595794678,1.3060743808746338,9.473180770874023,8.561158180236816,5.431699275970459,5.54226016998291
1.5236268000444397,3.4288105964660645,6.095986366271973,6.061374664306641,4.0929436683654785,1.9445806741714478,8.12983512878418,7.907254219055176,5.258219242095947,5.241086006164551
1.5263448000187054,4.246013164520264,6.077452182769775,5.229753494262695,4.6136322021484375,2.822289228439331,6.925693511962891,7.43972635269165,5.310780048370361,4.967074871063232
1.529129800037481,5.058723449707031,5.9979023933410645,4.423264980316162,5.148201942443848,3.811582088470459,5.834776878356934,7.051738262176514,5.463162899017334,4.646755695343018
1.5320740999886766,5.665944576263428,5.759120464324951,3.610497236251831,5.581807613372803,4.74075174331665,4.784524440765381,6.597811222076416,5.54626989364624,4.197753429412842
1.5350064999656752,5.907866477966309,5.289519309997559,2.7569427490234375,5.811193943023682,5.444881439208984,3.6886534690856934,5.934034824371338,5.392042636871338,3.5600054264068604
1.5384216000093147,5.705582141876221,4.567104339599609,1.8417606353759766,5.770955562591553,5.805750370025635,2.479797601699829,4.953176975250244,4.868941307067871,2.7193567752838135
1.54152339999564,5.087441444396973,3.637613534927368,0.878526508808136,5.456598281860352,5.786361217498779,1.1416916847229004,3.619021415710449,3.921114444732666,1.7237275838851929
1.544469999964349,4.182022571563721,2.6098484992980957,-0.07921522855758667,4.927891254425049,5.439789295196533,-0.27982714772224426,1.9765381813049316,2.5829687118530273,0.6779488325119019
1.5474656999576837,3.185889482498169,1.6361490488052368,-0.9443691372871399,4.297881603240967,4.898585319519043,-1.6852015256881714,0.14719034731388092,0.9793182015419006,-0.27624812722206116
1.5499789000023156,2.3137011528015137,0.8799797296524048,-1.6132911443710327,3.705559492111206,4.339649200439453,-2.9442474842071533,-1.6950193643569946,-0.7005535364151001,-0.9921783208847046
1.5529258999740705,1.7422699928283691,0.4762437045574188,-1.9973706007003784,3.279963970184326,3.9387195110321045,-3.933328151702881,-3.3608648777008057,-2.245004653930664,-1.356032133102417
1.5560508000198752,1.5702317953109741,0.4958009719848633,-2.055076837539673,3.1068761348724365,3.8266539573669434,-4.571890830993652,-4.688589572906494,-3.4650182723999023,-1.3193578720092773
1.5587273000273854,1.7993509769439697,0.9275898337364197,-1.8113213777542114,3.2065587043762207,4.060155868530273,-4.8428144454956055,-5.574793815612793,-4.232486248016357,-0.9153550863265991
1.5617331999819726,2.338552236557007,1.6808984279632568,-1.3573665618896484,3.5310146808624268,4.608896255493164,-4.794795989990234,-5.9907917976379395,-4.501427173614502,-0.2523728311061859
1.5647311999928206,3.039233684539795,2.6059348583221436,-0.8338197469711304,3.978699207305908,5.371114253997803,-4.525611877441406,-5.980522155761719,-4.30687141418457,0.5084149837493896
1.5673288999823853,3.736299753189087,3.5265913009643555,-0.39617887139320374,4.4202728271484375,6.199976444244385,-4.154653549194336,-5.642817974090576,-3.744166135787964,1.18785560131073
1.5703878999920562,4.287271499633789,4.278218746185303,-0.17484338581562042,4.732247352600098,6.939304828643799,-3.7901358604431152,-5.101408004760742,-2.9374470710754395,1.6283317804336548
1.5735500999726355,4.605505466461182,4.738394737243652,-0.24251960217952728,4.825094223022461,7.45796537399292,-3.504105567932129,-4.474836826324463,-2.0058844089508057,1.725387692451477
1.576377599965781,4.669205188751221,4.843235492706299,-0.6007702350616455,4.657618999481201,7.671933650970459,-3.3250322341918945,-3.8568918704986572,-1.0426695346832275,1.44320547580719
1.5795803000219166,4.512651443481445,4.5890278816223145,-1.184610366821289,4.2395219802856445,7.552384376525879,-3.2389042377471924,-3.305065155029297,-0.10415387898683548,0.8151358962059021
1.5817107999464497,4.199999809265137,4.021058082580566,-1.8888286352157593,3.6187751293182373,7.118142127990723,-3.2080936431884766,-2.843459129333496,0.7797977328300476,-0.07348611205816269
1.5837888000532985,3.8054139614105225,3.2191951274871826,-2.5945467948913574,2.8662071228027344,6.42497444152832,-3.1841516494750977,-2.467951774597168,1.5976166725158691,-1.1040102243423462
1.5868944999529049,3.393372058868408,2.2867677211761475,-3.192962408065796,2.0619773864746094,5.551321983337402,-3.115659236907959,-2.150474786758423,2.347019672393799,-2.144105911254883
1.5901402999879792,3.010284900665283,1.3407227993011475,-3.5976133346557617,1.2859892845153809,4.587429523468018,-2.9511516094207764,-1.8430144786834717,3.0290472507476807,-3.0629453659057617
1.5929330999497324,2.6955783367156982,0.5103332996368408,-3.7409093379974365,0.6171572208404541,3.631317377090454,-2.630356788635254,-1.4736543893814087,3.656768321990967,-3.736859083175659
1.5960033000446856,2.487591028213501,-0.0714641883969307,-3.568272590637207,0.13201916217803955,2.78307843208313,-2.082520008087158,-0.9508846402168274,4.260923862457275,-4.057697296142578
1.598944199969992,2.428539991378784,-0.2842101454734802,-3.0360655784606934,-0.10342251509428024,2.1358373165130615,-1.2361669540405273,-0.17782293260097504,4.888987064361572,-3.9441165924072266
1.6021783000323921,2.5579655170440674,-0.041833896189928055,-2.1175949573516846,-0.04231163486838341,1.7620253562927246,-0.03727218881249428,0.9252661466598511,5.596341609954834,-3.3564016819000244
1.6047879999969155,2.894325017929077,0.6784449815750122,-0.8232602477073669,0.3246707320213318,1.6941394805908203,1.5188262462615967,2.3892273902893066,6.424741268157959,-2.3143606185913086
1.6075690999859944,3.4143431186676025,1.81356680393219,0.7792462706565857,0.9540116190910339,1.9078322649002075,3.3612897396087646,4.166126251220703,7.378079414367676,-0.911157488822937
1.610525400028564,4.044083595275879,3.2150871753692627,2.5576140880584717,1.7490445375442505,2.319011926651001,5.338168621063232,6.1220269203186035,8.409910202026367,0.6921045780181885
1.6126808000262827,4.661959648132324,4.667662620544434,4.322380542755127,2.5703485012054443,2.793013334274292,7.231814384460449,8.04958724975586,9.424114227294922,2.2876336574554443
1.615574499941431,5.11934757232666,5.933599948883057,5.860313415527344,3.264522075653076,3.1707217693328857,8.803618431091309,9.709518432617188,10.294046401977539,3.6612472534179688
1.6182306000264362,5.288264751434326,6.812335014343262,6.984437465667725,3.704460620880127,3.313647508621216,9.855871200561523,10.89098834991455,10.900487899780273,4.641964435577393
1.620543299941346,5.096714496612549,7.190419673919678,7.582401752471924,3.822493076324463,3.1386218070983887,10.287307739257812,11.468548774719238,11.166755676269531,5.144326686859131
1.6234285000246018,4.557649612426758,7.071618556976318,7.644747734069824,3.627687692642212,2.6448349952697754,10.121098518371582,11.437222480773926,11.082015991210938,5.185981273651123
1.6264116000384092,3.7737460136413574,6.5743513107299805,7.270412445068359,3.2024219036102295,1.9176822900772095,9.506903648376465,10.91877269744873,10.707530975341797,4.880321979522705
1.6292231000261381,2.914565086364746,5.8973612785339355,6.6374640464782715,2.675492286682129,1.1066893339157104,8.680130004882812,10.129961967468262,10.159180641174316,4.400200366973877
1.6322426999686286,2.175676107406616,5.265787124633789,5.957662105560303,2.1846163272857666,0.38821202516555786,7.903388023376465,9.328583717346191,9.578059196472168,3.9292895793914795
1.6351813999935985,1.7274187803268433,4.871185779571533,5.423597812652588,1.8364266157150269,-0.0818081945180893,7.400743007659912,8.749247550964355,9.093031883239746,3.6138916015625
1.638177299988456,1.677138090133667,4.826348304748535,5.169155597686768,1.6825110912322998,-0.20591512322425842,7.311923980712891,8.552933692932129,8.796622276306152,3.5320959091186523
1.6412346999859437,2.0443637371063232,5.145283222198486,5.252150535583496,1.7135649919509888,0.03504512831568718,7.672654628753662,8.798416137695312,8.729357719421387,3.6875827312469482
1.6442094000522047,2.7558655738830566,5.746623992919922,5.653151988983154,1.8701255321502686,0.5787593126296997,8.417113304138184,9.43843936920166,8.876020431518555,4.022892475128174
1.6473100000293925,3.6651246547698975,6.481139659881592,6.295183181762695,2.0667331218719482,1.300881266593933,9.406156539916992,10.3416748046875,9.175040245056152,4.447432041168213
1.6495940999593586,4.580456256866455,7.164494514465332,7.059366703033447,2.214711904525757,2.043377637863159,10.455449104309082,11.319293022155762,9.526803016662598,4.862346172332764
1.6529847000492737,5.302062511444092,7.614792823791504,7.804702281951904,2.240701913833618,2.647995710372925,11.3646240234375,12.160160064697266,9.806144714355469,5.1788482666015625
1.6557420999743044,5.654837608337402,7.680146217346191,8.381032943725586,2.094430923461914,2.9835121631622314,11.938764572143555,12.658102989196777,9.874783515930176,5.325223445892334
1.6586359000066295,5.518705368041992,7.260365009307861,8.640928268432617,1.7501378059387207,2.965353012084961,12.004307746887207,12.636479377746582,9.596778869628906,5.246789455413818
1.6616455999901518,4.848333835601807,6.317951202392578,8.456069946289062,1.2042113542556763,2.5656118392944336,11.426704406738281,11.969356536865234,8.86005687713623,4.905202388763428
1.6648465000325814,3.6842360496520996,4.889317035675049,7.7456159591674805,0.4780840277671814,1.8159784078598022,10.135664939880371,10.605775833129883,7.602357387542725,4.287759304046631
1.6675106999464333,2.1455307006835938,3.084486246109009,6.503030300140381,-0.3791773021221161,0.8001182675361633,8.149313926696777,8.58611011505127,5.83175802230835,3.4196624755859375
1.6705331000266597,0.40982863306999207,1.0762146711349487,4.812537670135498,-1.29017972946167,-0.35911330580711365,5.58884334564209,6.047082424163818,3.632734775543213,2.372770071029663
1.673722399980761,-1.318015694618225,-0.9191683530807495,2.8520443439483643,-2.1507530212402344,-1.5180177688598633,2.6777358055114746,3.2129316329956055,1.1613227128982544,1.2699099779129028
1.6765178999630734,-2.849611759185791,-2.6750566959381104,0.8703157901763916,-2.8411409854888916,-2.5337178707122803,-0.2821905314922333,0.3627813756465912,-1.3843514919281006,0.27188727259635925
1.679768200032413,-4.054254531860352,-3.997962713241577,-0.8620070815086365,-3.2495462894439697,-3.291747808456421,-2.963735580444336,-2.220836877822876,-3.807730197906494,-0.4533950388431549
1.6825103999581188,-4.876302242279053,-4.76663064956665,-2.1125683784484863,-3.298048496246338,-3.720407009124756,-5.079890727996826,-4.310514450073242,-5.953015327453613,-0.7719305157661438
1.6855086999712512,-5.349337100982666,-4.965288162231445,-2.7455434799194336,-2.9696266651153564,-3.8088412284851074,-6.449504852294922,-5.78854513168335,-7.741272449493408,-0.6259410381317139
1.6880394000327215,-5.576391696929932,-4.689867973327637,-2.755178689956665,-2.3210651874542236,-3.6059558391571045,-7.039831161499023,-6.674378871917725,-9.180913925170898,-0.05532054603099823
1.6911008999450132,-5.6944146156311035,-4.132962703704834,-2.2704551219940186,-1.4793978929519653,-3.2085018157958984,-6.9775471687316895,-7.123134613037109,-10.353960990905762,0.8004134297370911
1.6932680000318214,-5.836148738861084,-3.5419952869415283,-1.5243291854858398,-0.6188472509384155,-2.7387709617614746,-6.520294189453125,-7.386633396148682,-11.384822845458984,1.7314506769180298
1.6963147999485955,-6.095036506652832,-3.1664516925811768,-0.7982940673828125,0.07489760965108871,-2.31781005859375,-5.997581481933594,-7.752275466918945,-12.397958755493164,2.5041723251342773
1.6991078000282869,-6.508676052093506,-3.205721855163574,-0.36089929938316345,0.44408953189849854,-2.0415005683898926,-5.739525318145752,-8.475335121154785,-13.483680725097656,2.914132595062256
1.7020891000283882,-7.06441068649292,-3.7706737518310547,-0.4140942692756653,0.39160680770874023,-1.965407133102417,-6.007050037384033,-9.721542358398438,-14.679459571838379,2.8297278881073
1.7050916999578476,-7.714917182922363,-4.865025997161865,-1.0603703260421753,-0.09982190281152725,-2.0988476276397705,-6.944713115692139,-11.53166675567627,-15.96345329284668,2.2161784172058105
1.7077278000069782,-8.40343189239502,-6.392962455749512,-2.2936835289001465,-0.968601405620575,-2.410355806350708,-8.558609962463379,-13.818758964538574,-17.268640518188477,1.134057641029358
1.7098753999453038,-9.084397315979004,-8.186285972595215,-4.017558574676514,-2.09309983253479,-2.8407371044158936,-10.728719711303711,-16.39164924621582,-18.502546310424805,-0.28523626923561096
1.7130393999395892,-9.730671882629395,-10.041292190551758,-6.073219299316406,-3.321624994277954,-3.317570924758911,-13.241329193115234,-18.998252868652344,-19.570356369018555,-1.8770071268081665
1.7164201999548823,-10.321182250976562,-11.756250381469727,-8.274819374084473,-4.503363609313965,-3.7655422687530518,-15.835330963134766,-21.37184715270996,-20.384204864501953,-3.4809441566467285
1.7193487000185996,-10.832741737365723,-13.162673950195312,-10.440011024475098,-5.516312122344971,-4.1190996170043945,-18.24855613708496,-23.274410247802734,-20.8721981048584,-4.971410274505615
1.722068200004287,-11.22226619720459,-14.1438627243042,-12.415339469909668,-6.283080577850342,-4.324932098388672,-20.25830078125,-24.52893829345703,-20.981359481811523,-6.273147106170654
1.7249296000227332,-11.424413681030273,-14.640625953674316,-14.087458610534668,-6.77471923828125,-4.346755027770996,-21.706083297729492,-25.034870147705078,-20.675146102905273,-7.36078405380249
1.7276335000060499,-11.365781784057617,-14.649240493774414,-15.390130996704102,-7.003162860870361,-4.170655250549316,-22.51160430908203,-24.772920608520508,-19.938636779785156,-8.24666690826416
1.7305928999558091,-10.989187240600586,-14.211047172546387,-16.30115509033203,-7.008400917053223,-3.8080825805664062,-22.670730590820312,-23.798070907592773,-18.787267684936523,-8.961974143981934
1.7336844999808818,-10.277671813964844,-13.40021800994873,-16.836109161376953,-6.843055248260498,-3.2957711219787598,-22.245267868041992,-22.225481033325195,-17.271284103393555,-9.538723945617676
1.7367299000034109,-9.273751258850098,-12.309791564941406,-17.033525466918945,-6.558614253997803,-2.693020820617676,-21.33903694152832,-20.208343505859375,-15.477771759033203,-9.993839263916016
1.7397351999534294,-8.084985733032227,-11.042159080505371,-16.945308685302734,-6.199972629547119,-2.075413465499878,-20.07933807373047,-17.917387008666992,-13.52686595916748,-10.325900077819824
1.742841999977827,-6.8583807945251465,-9.695833206176758,-16.6197566986084,-5.8013763427734375,-1.51791512966156,-18.589065551757812,-15.515352249145508,-11.550118446350098,-10.514244079589844
1.745792799978517,-5.748754024505615,-8.356124877929688,-16.09073829650879,-5.387262344360352,-1.0803844928741455,-16.96541976928711,-13.133787155151367,-9.66777515411377,-10.526570320129395
1.748965400038287,-4.873757839202881,-7.0873003005981445,-15.371757507324219,-4.974401473999023,-0.7923126220703125,-15.267455101013184,-10.858499526977539,-7.96005392074585,-10.329365730285645
1.7511189000215381,-4.279221534729004,-5.926563739776611,-14.457953453063965,-4.574743270874023,-0.6467217803001404,-13.514087677001953,-8.723343849182129,-6.449512004852295,-9.898943901062012
1.7538079000078142,-3.9277491569519043,-4.88372278213501,-13.331741333007812,-4.197301864624023,-0.603844940662384,-11.689400672912598,-6.716465950012207,-5.100266933441162,-9.229393005371094
1.756904699956067,-3.70155930519104,-3.9398536682128906,-11.97285270690918,-3.844311237335205,-0.5991367101669312,-9.758041381835938,-4.794039249420166,-3.826157331466675,-8.332952499389648
1.759899799944833,-3.4422109127044678,-3.058814287185669,-10.373604774475098,-3.514528512954712,-0.564700722694397,-7.687320232391357,-2.9042327404022217,-2.522810220718384,-7.243054389953613
1.7624828999396414,-2.9965152740478516,-2.196664571762085,-8.54887866973877,-3.201517343521118,-0.44686174392700195,-5.465592384338379,-1.0107487440109253,-1.100888729095459,-6.007040023803711
1.764846000005491,-2.264993667602539,-1.3143510818481445,-6.540886878967285,-2.8944449424743652,-0.2195451557636261,-3.1142914295196533,0.8920140862464905,0.4824579358100891,-4.6792988777160645
1.768342199968174,-1.2382630109786987,-0.3913719654083252,-4.420854568481445,-2.5826425552368164,0.10996276885271072,-0.6924469470977783,2.769387722015381,2.205608367919922,-3.3170242309570312
1.7713227999629453,-0.004307778086513281,0.5682069063186646,-2.281355857849121,-2.257077217102051,0.5043713450431824,1.710580825805664,4.55288028717041,3.984048366546631,-1.9742244482040405
1.7742843000451103,1.2681963443756104,1.5315964221954346,-0.22882334887981415,-1.9154690504074097,0.9063480496406555,3.98679780960083,6.152175426483154,5.686312675476074,-0.7020570039749146
1.7763996999710798,2.372807264328003,2.444236993789673,1.633061408996582,-1.563458800315857,1.2517601251602173,6.030916690826416,7.477207183837891,7.16530179977417,0.4532756507396698
1.7794602999929339,3.1278510093688965,3.245159387588501,3.219045877456665,-1.211301565170288,1.4899171590805054,7.759457588195801,8.463521957397461,8.298521041870117,1.4528770446777344
1.7822726999875158,3.425913095474243,3.8848729133605957,4.479406833648682,-0.868688702583313,1.5927562713623047,9.129242897033691,9.090328216552734,9.016578674316406,2.2706217765808105
1.7852667999686673,3.2738311290740967,4.345080852508545,5.4138689041137695,-0.5369360446929932,1.5669727325439453,10.15009593963623,9.395415306091309,9.323988914489746,2.902684211730957
1.7883547999663278,2.7924482822418213,4.6466383934021,6.074122428894043,-0.20626379549503326,1.4520388841629028,10.883122444152832,9.47057819366455,9.296767234802246,3.371112585067749
1.7913958999561146,2.1902620792388916,4.85377311706543,6.56273889541626,0.14928950369358063,1.3158622980117798,11.435752868652344,9.451744079589844,9.066393852233887,3.7314743995666504
1.7942439999897033,1.7094738483428955,5.058495998382568,7.014534950256348,0.5664198994636536,1.2412664890289307,11.940202713012695,9.491698265075684,8.787738800048828,4.066254138946533
1.7972207999555394,1.5605570077896118,5.357081890106201,7.567179203033447,1.0802711248397827,1.3059152364730835,12.524717330932617,9.727033615112305,8.600848197937012,4.4664692878723145
1.800190299982205,1.8667638301849365,5.8222270011901855,8.331303596496582,1.7096502780914307,1.5618197917938232,13.283991813659668,10.246143341064453,8.598422050476074,5.009698867797852
1.8032164999749511,2.631983995437622,6.474755764007568,9.355045318603516,2.438687801361084,2.0140514373779297,14.248099327087402,11.059226036071777,8.802295684814453,5.728665828704834
1.806365599972196,3.736952066421509,7.268278121948242,10.605731964111328,3.207442283630371,2.6101715564727783,15.369050979614258,12.087626457214355,9.157114028930664,6.590816974639893
1.8091855000238866,4.969839096069336,8.090436935424805,11.965852737426758,3.9099209308624268,3.2388455867767334,16.520483016967773,13.169778823852539,9.544129371643066,7.491316795349121
1.8122063999762759,6.0774993896484375,8.783928871154785,13.255962371826172,4.40955114364624,3.746866464614868,17.52219009399414,14.089807510375977,9.810497283935547,8.269020080566406
1.8151614000089467,6.82332706451416,9.177610397338867,14.267583847045898,4.563086032867432,3.9664173126220703,18.175304412841797,14.617315292358398,9.803497314453125,8.738690376281738
1.8181433000136167,7.030660152435303,9.124369621276855,14.807662963867188,4.252503395080566,3.7500393390655518,18.304615020751953,14.554128646850586,9.401618957519531,8.735550880432129
1.821205300046131,6.621015548706055,8.537822723388672,14.744768142700195,3.417348861694336,3.0085902214050293,17.800678253173828,13.777200698852539,8.545358657836914,8.162296295166016
1.8242356999544427,5.613802909851074,7.410167217254639,14.035289764404297,2.0742712020874023,1.7347643375396729,16.641727447509766,12.261934280395508,7.243261814117432,7.016851425170898
1.8271508000325412,4.114494800567627,5.816443920135498,12.731555938720703,0.32185572385787964,0.012093492783606052,14.894857406616211,10.087517738342285,5.567360877990723,5.4013776779174805
1.8301388999680057,2.285769462585449,3.8970260620117188,10.967034339904785,-1.6751807928085327,-1.9973174333572388,12.698040008544922,7.4173583984375,3.6353795528411865,3.500148296356201
1.833297000033781,0.3146548867225647,1.82968008518219,8.924513816833496,-3.713073492050171,-4.082347869873047,10.227405548095703,4.4659743309021,1.5856373310089111,1.5402952432632446
1.8362387999659404,-1.621561050415039,-0.2074802964925766,6.794875144958496,-5.5875563621521,-6.024490833282471,7.658114433288574,1.4558879137039185,-0.4506692886352539,-0.2585492432117462
1.8394360999809578,-3.377615451812744,-2.0646748542785645,4.7405548095703125,-7.126891136169434,-7.635987281799316,5.132874011993408,-1.4186370372772217,-2.3676908016204834,-1.727929711341858
1.8419295999919996,-4.85079288482666,-3.6411330699920654,2.8701817989349365,-8.216973304748535,-8.788005828857422,2.7446186542510986,-4.017946720123291,-4.093006134033203,-2.778693437576294
